BOXY.EXE: ISS Imagent and Oximeter Data Acquisition Program Version 0.80
Ascii Record File

#ACQ INFORMATION
2  Detector Channels 
16  External MUX Channels 
1  Auxiliary Channels 
5000  Waveform (CCF) Frequency (Hz)
1  Waveforms Skipped 
30  Waveforms Averaged 
1  Cycles Averaged 
16  Acquisitions per Waveform 
10.0806  Updata Rate (Hz) 

#FILE INFORMATION
TRUE -- External MUX Channel results are PARSED.
FALSE -- AC DC and Phase are NOT grouped.
TRUE -- Companion Program Settings File CREATED.
FALSE -- AC data not excluded
FALSE -- DC data not excluded
FALSE -- Phase data not excluded
FALSE -- Auxillary Chn. data not excluded
Tab delimiters

#CALIBRATION STATE
TRUE -- Waveform Calibration Values APPLIED.


#AUX CALIBRATION VALUES
Val Type	aux-1	

Term	1.0000e+00	
Factor	0.0000e+00	


#WF CALIBRATION VALUES
A = Detector Channel
Val Type	A-AC1	A-AC2	A-AC3	A-AC4	A-AC5	A-AC6	A-AC7	A-AC8	A-AC9	A-AC10	A-AC11	A-AC12	A-AC13	A-AC14	A-AC15	A-AC16	A-DC1	A-DC2	A-DC3	A-DC4	A-DC5	A-DC6	A-DC7	A-DC8	A-DC9	A-DC10	A-DC11	A-DC12	A-DC13	A-DC14	A-DC15	A-DC16	A-Ph1	A-Ph2	A-Ph3	A-Ph4	A-Ph5	A-Ph6	A-Ph7	A-Ph8	A-Ph9	A-Ph10	A-Ph11	A-Ph12	A-Ph13	A-Ph14	A-Ph15	A-Ph16	

Term	0.00000e+00	0.00000e+00	0.00000e+00	0.00000e+00	0.00000e+00	0.00000e+00	0.00000e+00	0.00000e+00	0.00000e+00	0.00000e+00	0.00000e+00	0.00000e+00	0.00000e+00	0.00000e+00	0.00000e+00	0.00000e+00	0.00000e+00	0.00000e+00	0.00000e+00	0.00000e+00	0.00000e+00	0.00000e+00	0.00000e+00	0.00000e+00	0.00000e+00	0.00000e+00	0.00000e+00	0.00000e+00	0.00000e+00	0.00000e+00	0.00000e+00	0.00000e+00	0.00000e+00	0.00000e+00	0.00000e+00	0.00000e+00	0.00000e+00	0.00000e+00	0.00000e+00	0.00000e+00	0.00000e+00	0.00000e+00	0.00000e+00	0.00000e+00	0.00000e+00	0.00000e+00	0.00000e+00	0.00000e+00	
Factor	1.00000e+00	1.00000e+00	1.00000e+00	1.00000e+00	1.00000e+00	1.00000e+00	1.00000e+00	1.00000e+00	1.00000e+00	1.00000e+00	1.00000e+00	1.00000e+00	1.00000e+00	1.00000e+00	1.00000e+00	1.00000e+00	1.00000e+00	1.00000e+00	1.00000e+00	1.00000e+00	1.00000e+00	1.00000e+00	1.00000e+00	1.00000e+00	1.00000e+00	1.00000e+00	1.00000e+00	1.00000e+00	1.00000e+00	1.00000e+00	1.00000e+00	1.00000e+00	X	X	X	X	X	X	X	X	X	X	X	X	X	X	X	X	

B = Detector Channel
Val Type	B-AC1	B-AC2	B-AC3	B-AC4	B-AC5	B-AC6	B-AC7	B-AC8	B-AC9	B-AC10	B-AC11	B-AC12	B-AC13	B-AC14	B-AC15	B-AC16	B-DC1	B-DC2	B-DC3	B-DC4	B-DC5	B-DC6	B-DC7	B-DC8	B-DC9	B-DC10	B-DC11	B-DC12	B-DC13	B-DC14	B-DC15	B-DC16	B-Ph1	B-Ph2	B-Ph3	B-Ph4	B-Ph5	B-Ph6	B-Ph7	B-Ph8	B-Ph9	B-Ph10	B-Ph11	B-Ph12	B-Ph13	B-Ph14	B-Ph15	B-Ph16	

Term	0.00000e+00	0.00000e+00	0.00000e+00	0.00000e+00	0.00000e+00	0.00000e+00	0.00000e+00	0.00000e+00	0.00000e+00	0.00000e+00	0.00000e+00	0.00000e+00	0.00000e+00	0.00000e+00	0.00000e+00	0.00000e+00	0.00000e+00	0.00000e+00	0.00000e+00	0.00000e+00	0.00000e+00	0.00000e+00	0.00000e+00	0.00000e+00	0.00000e+00	0.00000e+00	0.00000e+00	0.00000e+00	0.00000e+00	0.00000e+00	0.00000e+00	0.00000e+00	7.91608e+01	-1.57426e+02	-1.25790e+02	-1.81071e+02	-1.33254e+02	-4.33174e+01	-1.58384e+02	-1.62015e+02	-9.85754e+01	-5.35677e+01	-1.74335e+02	-1.74194e+02	-1.80052e+02	-1.76373e+02	-8.84111e+01	-1.49596e+02	
Factor	7.28416e-05	1.18705e-04	3.43277e-05	1.55421e-01	1.40958e-06	1.37877e-06	1.77198e-01	4.90421e-02	1.73132e-06	1.35496e-06	9.21222e-02	3.70337e-02	2.12366e-02	8.91378e-03	1.18770e-06	1.32070e-02	1.01932e-06	1.04090e-06	2.89617e-07	7.87538e-02	1.13864e-08	1.14252e-08	8.37802e-02	2.48126e-02	1.13964e-08	1.14369e-08	4.41850e-02	1.75058e-02	1.07770e-02	4.46422e-03	1.14014e-08	6.34155e-03	X	X	X	X	X	X	X	X	X	X	X	X	X	X	X	X	



#DISTANCE SETTINGS
A = Detector Channel
A-1	A-2	A-3	A-4	A-5	A-6	A-7	A-8	A-9	A-10	A-11	A-12	A-13	A-14	A-15	A-16	

2.5000e+00	3.0000e+00	2.5000e+00	3.0000e+00	2.0000e+00	3.0000e+00	1.5000e+00	3.0000e+00	3.0000e+00	3.0000e+00	3.0000e+00	3.0000e+00	3.0000e+00	3.0000e+00	1.5000e+00	3.0000e+00	

B = Detector Channel
B-1	B-2	B-3	B-4	B-5	B-6	B-7	B-8	B-9	B-10	B-11	B-12	B-13	B-14	B-15	B-16	

1.0000e+01	1.0000e+01	1.0000e+01	1.4400e+00	1.0000e+01	1.0000e+01	1.5100e+00	1.9400e+00	1.0000e+01	1.0000e+01	1.9900e+00	2.4900e+00	2.4100e+00	2.9000e+00	1.0000e+01	2.9800e+00	




#DATA BEGINS
time	group	step	mark	flag	A-AC1	A-AC2	A-AC3	A-AC4	A-AC5	A-AC6	A-AC7	A-AC8	A-AC9	A-AC10	A-AC11	A-AC12	A-AC13	A-AC14	A-AC15	A-AC16	A-DC1	A-DC2	A-DC3	A-DC4	A-DC5	A-DC6	A-DC7	A-DC8	A-DC9	A-DC10	A-DC11	A-DC12	A-DC13	A-DC14	A-DC15	A-DC16	A-Ph1	A-Ph2	A-Ph3	A-Ph4	A-Ph5	A-Ph6	A-Ph7	A-Ph8	A-Ph9	A-Ph10	A-Ph11	A-Ph12	A-Ph13	A-Ph14	A-Ph15	A-Ph16	B-AC1	B-AC2	B-AC3	B-AC4	B-AC5	B-AC6	B-AC7	B-AC8	B-AC9	B-AC10	B-AC11	B-AC12	B-AC13	B-AC14	B-AC15	B-AC16	B-DC1	B-DC2	B-DC3	B-DC4	B-DC5	B-DC6	B-DC7	B-DC8	B-DC9	B-DC10	B-DC11	B-DC12	B-DC13	B-DC14	B-DC15	B-DC16	B-Ph1	B-Ph2	B-Ph3	B-Ph4	B-Ph5	B-Ph6	B-Ph7	B-Ph8	B-Ph9	B-Ph10	B-Ph11	B-Ph12	B-Ph13	B-Ph14	B-Ph15	B-Ph16	aux-1	digaux	

842.577	1	1	0	768	0.10014	0.0032748	0.047602	0.20743	0.0044689	0.10936	0.23398	0.042281	0.10036	0.20906	0.23651	0.11329	0.12272	0.11188	0.025989	0.26906	-2.6292	-2.8729	-2.8271	-3.2812	-2.7604	-2.95	-3.1917	-2.7042	-3.2458	-2.8042	-2.7521	-3.1208	-2.9313	-2.9625	-3.0271	-2.8646	-45.316	216.753	229.685	206.791	-15.842	67.801	200.105	228.741	20.748	-10.186	-112.087	181.537	-96.764	192.788	14.133	202.197	0.0014107	0.0009002	0.00028511	765.8	9.4468e-06	4.1855e-06	1056.6	239.44	2.0128e-05	2.5426e-06	423.45	144.09	72.154	32.999	5.0236e-06	79.223	0.00063425	0.0006297	0.00017787	738.4	7.0524e-06	7.0595e-06	1010.7	232.01	7.112e-06	7.2194e-06	402.48	138.53	71.679	32.216	7.1158e-06	74.38	50.117	-68.840	-8.140	-109.441	-34.191	-43.713	-110.179	-104.174	53.717	-56.276	-104.991	-99.991	-99.241	-93.344	124.317	-95.171	-8191	255	
842.673	1	1	0	0	0.093493	0.12239	0.10994	0.12753	0.016021	0.33353	0.27041	0.23477	0.071394	0.077371	0.083922	0.18658	0.16328	0.15642	0.084583	0.059504	-2.525	-2.8854	-2.8021	-3.2146	-2.6437	-3.0167	-3.1125	-2.7417	-3.2188	-2.8	-2.7896	-3.3479	-2.8604	-2.8812	-3.05	-2.8375	65.020	162.552	102.489	212.524	20.078	108.187	208.341	112.045	-51.550	53.221	159.112	-101.335	220.650	-68.896	-36.396	-55.485	0.0015836	0.00033659	0.00013387	761.68	3.2449e-06	8.9604e-06	1080.6	243.79	5.7869e-06	5.2328e-06	428.06	149.23	73.304	33.995	1.325e-06	80.611	0.00064006	0.00063544	0.0001746	736.43	6.8542e-06	7.0225e-06	1027.8	235.89	7.0594e-06	7.1921e-06	411.23	142.36	73.167	33.331	7.4069e-06	76.328	47.203	11.701	3.580	-108.813	122.664	11.178	-109.939	-103.791	232.445	33.060	-104.780	-100.084	-98.610	-92.811	31.327	-94.849	-8191	255	
842.769	1	1	0	0	0.12356	0.21638	0.52192	0.18469	0.087372	0.13927	0.091773	0.42074	0.22149	0.060927	0.02072	0.23427	0.012093	0.17114	0.22038	0.099143	-2.6042	-3.0125	-2.4646	-3.1104	-2.8146	-2.8625	-3.1125	-2.8854	-2.9146	-3.0583	-2.9125	-3.0417	-2.8104	-2.8812	-3.0062	-3.0375	197.830	-53.437	37.210	184.486	-43.633	-7.417	225.552	-86.466	72.564	190.643	-84.147	235.731	147.949	-95.141	64.518	-86.354	0.00099366	0.00054897	9.2043e-05	775.47	5.6118e-06	3.0216e-06	1083.4	245.68	4.8196e-06	7.1745e-06	431.99	147	73.64	34.111	7.9533e-06	81.178	0.00068709	0.00068304	0.00019188	751.52	7.6339e-06	7.6122e-06	1037.2	237.75	7.8276e-06	7.9099e-06	412.33	142.27	73.821	33.713	7.9878e-06	76.725	44.353	199.568	-102.983	-108.966	50.290	233.531	-109.831	-104.091	101.631	-53.917	-104.750	-99.540	-98.573	-92.639	0.961	-94.865	-8191	255	
842.865	1	1	0	0	0.08568	0.10766	0.28451	0.050291	0.23724	0.18433	0.28137	0.042533	0.046882	0.1319	0.27392	0.27361	0.1204	0.078583	0.16558	0.48287	-2.5083	-3.0187	-2.7333	-3.2104	-2.9854	-2.85	-3.1958	-2.9479	-2.9167	-3.05	-2.8	-3.3854	-3.0333	-2.8458	-3.1437	-2.8917	-33.908	187.612	-95.312	73.690	155.855	12.908	170.674	-14.275	-54.986	24.304	185.734	95.142	-105.546	236.456	84.744	157.623	0.0016338	0.0010625	4.6121e-05	784.5	7.7089e-06	1.5129e-05	1105.3	247.34	1.2446e-05	3.6978e-06	440.5	150.66	74.748	34.906	7.1552e-06	82.316	0.00073511	0.00072928	0.00020584	763.74	8.067e-06	8.0488e-06	1056.4	240.7	7.9865e-06	8.0214e-06	418.54	144.65	74.772	34.4	7.9021e-06	78.006	36.997	-21.876	-88.948	-109.069	105.430	3.188	-109.485	-103.832	219.591	99.410	-103.948	-98.988	-97.757	-93.163	-53.607	-94.055	-8191	255	
842.961	1	1	0	0	0.11468	0.070628	0.32585	0.20636	0.24959	0.1515	0.099509	0.26671	0.24878	0.1565	0.26664	0.16459	0.082191	0.35887	0.12479	0.14594	-2.6646	-3.2292	-2.65	-3.2208	-3.025	-2.7083	-3.4083	-2.6833	-2.9667	-3.1604	-2.7917	-3.2833	-3.0479	-2.7333	-3.1604	-2.9188	37.213	-20.291	200.189	91.051	6.382	208.747	69.636	173.183	22.994	-34.165	154.862	119.593	21.752	-113.036	102.515	91.683	0.0018585	0.00063276	0.00019297	788.45	2.7716e-06	9.0906e-06	1100.1	246.52	3.3554e-06	3.4557e-06	436.81	150.22	74.899	34.854	7.1376e-06	82.121	0.00072835	0.00072434	0.00020431	766.33	8.0637e-06	8.1904e-06	1053.6	241.48	8.2534e-06	8.277e-06	418.67	145.02	75.051	34.558	8.4109e-06	78.198	51.371	-90.446	208.355	-108.638	24.736	-106.115	-109.154	-103.411	1.866	110.423	-104.569	-99.257	-98.275	-92.710	-62.554	-94.816	-8191	255	
843.057	1	1	0	0	0.22408	0.23987	0.20712	0.32637	0.21345	0.09991	0.24257	0.24301	0.16997	0.074638	0.082485	0.082998	0.1658	0.25992	0.18982	0.017351	-2.2625	-3.1208	-2.5833	-3.0167	-3.1104	-2.725	-3.1917	-2.9792	-2.9562	-3.15	-3.0021	-3.1437	-3.1979	-2.6729	-3.1354	-2.9	163.045	229.687	-37.902	-115.305	203.037	52.480	179.252	190.444	-25.626	-56.015	-31.837	159.088	-19.238	-120.719	25.168	-20.814	0.0015433	0.00016118	4.823e-05	780.88	9.2086e-06	3.2609e-06	1093.7	245.01	1.0795e-05	1.0932e-05	430.06	146.66	73.132	33.524	6.3376e-06	77.97	0.00077159	0.00076804	0.00021545	764.87	8.6145e-06	8.6929e-06	1050.7	240.39	8.6001e-06	8.7763e-06	415.52	142.97	73.767	33.492	8.8461e-06	74.811	36.755	-99.640	-59.536	-108.576	-48.630	-8.067	-109.193	-103.492	-19.122	109.591	-104.102	-99.007	-98.323	-92.400	151.066	-95.006	-8191	255	
843.178	1	1	0	0	0.19473	0.15014	0.12025	0.40202	0.029722	0.27973	0.34765	0.10704	0.16422	0.12692	0.094593	0.30498	0.19528	0.16822	0.1027	0.30002	-2.4042	-3.2167	-2.7458	-3.0271	-2.9021	-2.5292	-3.2771	-2.8542	-2.85	-3	-2.75	-3.0458	-3.1896	-2.7167	-2.8917	-3.15	-117.640	217.445	165.600	-103.281	140.194	-64.146	180.970	109.488	24.925	153.361	223.229	221.963	187.346	-3.210	-104.584	205.867	0.001942	0.00077854	0.00017739	767.17	2.8239e-06	1.1973e-05	1066.2	238.29	9.0718e-06	1.9187e-05	419.43	140.58	69.607	31.342	1.3379e-05	74.184	0.00082123	0.00081212	0.00022669	749.97	8.947e-06	9.1089e-06	1030	235	9.0217e-06	9.1172e-06	406.02	138.11	71.073	31.579	8.9782e-06	71.211	57.617	-52.052	-100.014	-108.697	-121.385	17.913	-109.615	-103.738	-17.807	160.079	-104.493	-99.429	-98.492	-92.511	-36.850	-94.842	-8191	255	
843.274	1	1	0	0	0.089888	0.1458	0.087451	0.2185	0.12234	0.050003	0.23049	0.3114	0.3234	0.14908	0.077261	0.20573	0.19811	0.10409	0.050952	0.16098	-2.4708	-3.1479	-2.7271	-2.975	-3.2167	-2.6792	-3.2083	-2.9917	-2.6792	-3.1479	-2.8396	-3.0646	-3.2167	-2.7333	-3.1458	-3.1292	167.242	200.557	-7.368	229.900	180.293	177.330	200.480	102.024	111.720	-51.681	-54.075	-92.005	201.751	-113.296	118.999	185.701	0.0015279	0.00058419	9.8608e-05	745.1	1.5584e-05	1.3585e-05	1054.3	235.88	6.8958e-06	1.5432e-05	413.78	140.64	69.856	31.718	1.4859e-06	75.426	0.00081723	0.00082365	0.00022841	737.14	8.9554e-06	9.0647e-06	1016.2	231.93	8.8964e-06	8.8922e-06	403.01	137.21	71.048	31.967	8.8261e-06	71.839	75.551	-59.105	-79.204	-108.999	16.344	38.532	-109.660	-103.994	182.794	38.225	-104.436	-99.395	-98.204	-92.401	13.978	-95.222	-8191	255	
843.370	1	1	0	0	0.1251	0.036784	0.18508	0.1367	0.15077	0.13857	0.096634	0.16415	0.025374	0.1247	0.26736	0.052167	0.092714	0.076166	0.11841	0.32078	-2.2542	-3.0458	-2.8083	-2.8896	-3.1458	-2.8229	-3.2333	-3.0729	-2.6604	-3.1146	-2.9604	-2.8937	-3.0896	-2.6333	-3.0292	-3.2313	-105.129	45.816	187.246	129.541	182.528	118.331	227.596	221.886	230.554	160.765	205.454	75.396	-117.637	181.703	198.970	211.763	0.0010657	0.00052779	0.00025597	755.43	1.8052e-05	9.7919e-06	1056.1	236.32	1.1511e-05	6.1503e-06	419.65	142.58	70.597	32.768	1.1586e-05	77.451	0.00080831	0.00080787	0.00022602	742.73	8.794e-06	8.975e-06	1021.6	232.9	8.8879e-06	8.8793e-06	408.33	139.56	72.016	32.801	8.9529e-06	74.109	51.411	-78.653	36.959	-108.898	-81.735	78.856	-109.349	-103.736	-32.286	180.496	-104.421	-99.576	-97.886	-92.216	-29.530	-94.411	-8191	255	
843.467	1	1	0	0	0.10172	0.25065	0.13454	0.11954	0.14625	0.16637	0.19681	0.093393	0.16823	0.077872	0.011496	0.04313	0.13879	0.096917	0.19694	0.18019	-2.175	-2.9667	-2.9771	-2.8646	-3.1958	-2.7958	-3.2417	-3.1208	-2.5833	-3.1479	-3.0396	-2.8271	-3.25	-3.0021	-2.8937	-3.1312	36.954	46.476	-25.800	224.110	171.826	-7.698	-113.364	236.164	153.443	217.943	-5.905	-102.728	229.804	142.876	76.102	-82.734	0.0016685	0.0006436	0.00013905	772.1	3.1956e-06	2.6969e-06	1073.9	237.82	5.347e-06	7.9047e-06	421.66	144.66	71.358	32.604	7.88e-06	76.775	0.00083644	0.00084256	0.00023592	757.9	9.603e-06	9.695e-06	1042.8	236.28	9.7168e-06	9.8366e-06	412.87	142.14	73.623	33.288	1.0085e-05	74.187	59.061	34.798	-28.008	-108.450	196.494	67.870	-108.792	-103.207	52.315	-26.967	-103.645	-99.041	-97.539	-91.631	-102.857	-94.694	-8191	255	
843.561	1	1	0	0	0.13894	0.21989	0.094845	0.16372	0.10405	0.076829	0.063447	0.29673	0.18356	0.10565	0.17008	0.16905	0.091458	0.08909	0.079872	0.3382	-2.1729	-2.9542	-2.9167	-2.7771	-3.1271	-2.9521	-2.9062	-3.1646	-2.5333	-3.1604	-2.925	-2.8771	-3.125	-2.9146	-2.7583	-3.125	-51.526	-55.727	195.179	172.294	63.275	121.935	-58.906	222.019	4.400	34.833	236.972	159.643	168.160	115.568	154.334	163.902	0.0020429	0.0010571	0.00039076	763.39	3.6969e-07	2.9349e-06	1066.1	235.14	1.7439e-05	5.0185e-06	413.52	141.55	70.355	31.678	1.0951e-05	74.615	0.00093128	0.00094192	0.00026364	759.04	1.0421e-05	1.0643e-05	1039.8	235.46	1.0647e-05	1.0698e-05	409.96	141.11	73.365	32.597	1.0769e-05	72.46	45.939	-53.187	-15.508	-108.803	-78.308	153.430	-109.434	-103.627	-24.369	19.596	-104.476	-99.286	-98.459	-92.510	27.112	-94.564	-8191	255	
843.657	1	1	0	0	0.18234	0.079222	0.29979	0.091904	0.28201	0.04193	0.11234	0.048746	0.26332	0.27833	0.082113	0.17965	0.33766	0.12062	0.16288	0.14802	-2.3333	-2.9229	-2.8563	-2.8083	-2.9854	-2.8812	-2.9021	-3.2438	-2.7771	-2.9938	-3.1688	-2.75	-3.125	-3.0542	-2.7188	-3.3271	-32.280	40.732	-110.306	185.223	-89.261	43.775	-119.185	-108.383	15.856	-98.482	205.324	-40.742	235.050	-68.387	81.727	148.127	0.00098979	0.00040494	0.00011487	760.48	1.0066e-05	3.8864e-06	1059.9	224.65	1.7899e-05	1.0799e-05	394.11	131.84	66.362	27.822	8.9567e-06	65.216	0.0010001	0.0010034	0.00028334	765.85	1.1309e-05	1.1502e-05	1043.9	229.66	1.1875e-05	1.2052e-05	396.91	134.92	71.195	29.871	1.2413e-05	65.101	40.550	-57.178	-58.170	-108.886	-92.152	111.518	-109.310	-103.395	-69.678	58.349	-104.224	-99.351	-98.483	-92.689	-91.909	-94.566	-8191	255	
843.778	1	1	0	0	0.10708	0.28344	0.2945	0.025301	0.086868	0.10829	0.070489	0.27588	0.26479	0.076353	0.24776	0.22011	0.17647	0.1644	0.23303	0.11557	-2.5354	-2.9021	-2.8896	-2.5833	-3.1	-3.0812	-2.7521	-3.2687	-2.8667	-2.975	-3.1458	-2.85	-3.1604	-3.0417	-2.7521	-3.4083	75.131	-50.853	210.653	-19.555	23.980	108.574	60.552	84.078	178.247	65.176	220.342	-87.095	-99.607	152.208	-71.986	186.546	0.00066919	0.00032955	0.00021306	755.64	9.2136e-06	2.3286e-06	1061.8	212.64	1.341e-05	3.2337e-06	374.55	122.08	63.915	25.808	4.9996e-06	59.393	0.001143	0.0011624	0.0003219	770.41	1.2734e-05	1.2913e-05	1057	220.48	1.3161e-05	1.3207e-05	384.47	128.28	69.876	28.231	1.3512e-05	60.775	11.294	-16.489	207.651	-108.947	-42.391	-119.580	-109.565	-103.657	-111.838	63.183	-104.770	-99.643	-98.562	-92.662	156.571	-94.806	-8191	255	
843.874	1	1	0	0	0.14461	0.16272	0.19114	0.20269	0.1882	0.065925	0.1658	0.13994	0.025745	0.16064	0.073368	0.10567	0.12942	0.1619	0.10555	0.15782	-2.4417	-2.8604	-3.1562	-2.8	-3.0458	-3.1437	-2.8896	-3.1667	-2.9875	-2.8333	-3.225	-2.8729	-2.9958	-3.0938	-2.55	-3.1354	163.362	8.637	145.974	185.817	220.303	-48.026	18.110	11.853	13.098	-88.946	138.425	-82.564	173.892	190.925	-29.774	205.703	0.0010465	0.00073212	0.00026633	757.78	5.7251e-06	3.117e-06	1074.6	213.05	1.2242e-05	3.3245e-06	370.42	119.2	62.674	25.027	4.3383e-06	58.285	0.0012144	0.001237	0.00034589	778.25	1.3679e-05	1.3769e-05	1072.1	222.63	1.3683e-05	1.3723e-05	381.73	126.5	69.542	27.839	1.385e-05	59.797	64.994	235.241	-82.213	-108.845	-104.395	122.017	-109.324	-104.003	-5.139	46.693	-104.908	-99.734	-98.831	-92.694	169.290	-94.683	-8191	255	
843.970	1	1	0	0	0.14045	0.011871	0.096511	0.096445	0.15627	0.33026	0.20641	0.2023	0.46454	0.16022	0.17404	0.048368	0.11661	0.029647	0.2004	0.10051	-2.4771	-2.6896	-3.1792	-2.8208	-2.9979	-3.1	-2.7458	-3.1333	-2.9125	-2.8438	-3.0375	-2.8479	-2.8917	-3.1854	-2.7083	-3.0646	192.341	223.284	-93.615	121.767	-59.381	2.927	94.970	146.218	-3.070	124.364	125.963	131.507	-78.830	211.539	-96.019	237.783	0.0015297	0.0010919	0.0001501	752.1	1.181e-05	1.1193e-05	1068.1	208.07	9.3127e-06	1.2757e-05	364.33	117.94	62.081	24.337	8.2582e-06	56.67	0.0012384	0.0012617	0.00034965	774.16	1.3785e-05	1.3692e-05	1063.8	218.1	1.3769e-05	1.3769e-05	376.59	125.14	68.421	27.176	1.3567e-05	58.469	50.735	0.265	84.811	-108.917	-18.081	14.240	-109.534	-103.950	-40.269	-49.276	-104.722	-99.413	-98.595	-92.558	-60.852	-94.283	-8191	255	
844.066	1	1	0	0	0.14069	0.083206	0.083067	0.17135	0.1641	0.085239	0.23551	0.2024	0.065378	0.095084	0.19465	0.26299	0.13187	0.076655	0.22559	0.19915	-2.6708	-2.6562	-3.1542	-2.8854	-2.85	-2.9979	-2.9083	-3.1188	-3.0167	-2.8229	-3.1417	-2.8479	-2.8208	-3.1312	-2.55	-3.2479	19.751	196.338	43.773	202.794	-24.889	72.337	82.452	152.025	-49.019	97.603	-33.425	102.941	237.049	196.118	63.886	189.857	0.0012801	0.001754	3.0884e-05	744.1	4.6237e-06	9.0058e-06	1060.6	207.28	9.9896e-06	7.3478e-06	361.83	118.89	61.846	24.175	1.2074e-05	56.324	0.0012229	0.001244	0.00034749	764.67	1.3621e-05	1.3743e-05	1055.4	217.15	1.3793e-05	1.3902e-05	376.06	125.16	68.922	27.063	1.3754e-05	58.308	69.041	-61.379	114.457	-108.251	-120.786	68.476	-109.129	-103.553	214.866	135.376	-104.413	-99.308	-98.387	-92.471	76.931	-93.542	-8191	255	
844.138	1	1	0	0	0.1388	0.09345	0.13389	0.2585	0.10859	0.19391	0.22603	0.15356	0.21909	0.37755	0.12958	0.16716	0.19333	0.14786	0.075981	0.10733	-2.5729	-2.5938	-3.0083	-3.0167	-2.8708	-3.1271	-2.7812	-2.9792	-3.0208	-2.6167	-3.1437	-2.7917	-2.7396	-3.0896	-2.8146	-2.9167	-53.426	74.571	-61.953	126.834	22.546	235.974	141.818	-79.271	-40.263	25.988	-74.477	136.879	-36.178	223.211	-62.570	-34.949	0.0015391	0.00086622	0.00029852	743.21	7.2871e-06	1.6438e-05	1059.3	206.86	2.1357e-05	1.451e-05	364.79	119.25	62.234	24.574	1.3008e-05	58.351	0.00123	0.0012417	0.00034343	764.85	1.3432e-05	1.3323e-05	1052.8	215.06	1.3293e-05	1.3239e-05	375.35	125.03	68.627	27.201	1.3032e-05	59.129	69.837	-113.929	-76.352	-107.945	-25.006	-18.780	-108.863	-102.980	81.187	7.168	-104.140	-98.536	-97.521	-91.696	-107.860	-93.632	-8191	255	
844.258	1	1	0	0	0.055013	0.1285	0.13677	0.30864	0.11182	0.14697	0.18384	0.036786	0.13185	0.022394	0.46996	0.30374	0.12466	0.14534	0.11827	0.28284	-2.6667	-2.6167	-2.9271	-2.9083	-2.7458	-3.1625	-2.9479	-2.9917	-2.9521	-2.7917	-3.2396	-2.9667	-2.7062	-3.1375	-2.6312	-2.9437	-39.780	-56.540	1.706	175.152	-118.353	85.149	180.302	97.750	159.717	61.811	190.350	209.003	44.506	89.243	174.701	232.260	0.0010536	0.00068885	8.8133e-05	753.24	6.2035e-06	7.5061e-06	1044.7	207.98	1.72e-05	8.9053e-06	366.74	120.23	62.682	24.761	2.8915e-06	58.613	0.0011754	0.0011894	0.00033131	767.1	1.2923e-05	1.294e-05	1037.8	214.21	1.2749e-05	1.2824e-05	375.75	125.44	68.288	27.247	1.2558e-05	59.304	54.003	-109.585	-33.290	-108.080	198.886	146.346	-108.577	-102.925	36.942	123.696	-103.604	-98.758	-97.930	-91.596	42.882	-93.655	-8191	255	
844.355	1	1	0	0	0.20435	0.051	0.21788	0.25061	0.28371	0.20719	0.072093	0.25315	0.23874	0.13444	0.14148	0.16755	0.21037	0.30596	0.20992	0.2367	-2.5208	-2.6146	-2.9958	-2.9542	-2.725	-3.0563	-2.8833	-2.9917	-3.1188	-2.725	-3.0854	-2.8854	-2.6979	-2.925	-2.725	-2.9688	124.337	161.832	-22.253	142.011	-30.646	-55.598	-117.154	202.182	8.947	-56.074	120.117	-73.056	154.489	223.672	189.833	115.921	0.0019894	0.00063542	0.00020189	736.06	5.4463e-06	4.7984e-06	1024.4	209.1	1.6183e-05	1.362e-05	372.96	121.82	62.436	24.837	3.7422e-06	58.578	0.0011302	0.0011355	0.00031398	751.52	1.226e-05	1.223e-05	1014.3	214.78	1.2079e-05	1.2098e-05	378.11	126.34	67.866	26.985	1.2206e-05	59.176	35.318	-46.601	18.011	-108.128	100.725	200.363	-109.505	-103.320	-110.997	-22.498	-104.573	-99.942	-98.694	-92.360	-1.929	-94.435	-8191	255	
844.451	1	1	0	0	0.26186	0.13995	0.21752	0.13729	0.14797	0.076814	0.10138	0.19448	0.034008	0.09836	0.18245	0.12807	0.20857	0.065079	0.090909	0.061432	-2.55	-2.5354	-3.1104	-3.0854	-2.6292	-3.1	-3.0375	-2.8771	-3.1521	-2.7833	-3.0208	-3.1292	-2.6979	-3.2104	-3.0229	-2.8021	-29.154	110.646	-119.402	202.253	-103.096	220.349	196.948	176.720	193.310	-109.387	144.568	158.991	231.929	25.799	36.599	112.988	0.0012645	0.00081686	0.00044451	721.51	9.1856e-06	1.5128e-05	1011.1	209.58	1.0241e-05	1.7963e-05	376.66	122.81	62.988	24.938	1.6111e-05	59.308	0.0010943	0.0011098	0.00030598	733.67	1.1951e-05	1.1904e-05	997.12	215	1.1657e-05	1.1665e-05	378.51	126.3	67.348	26.869	1.1356e-05	59.533	38.493	-57.676	28.568	-108.861	-65.832	8.502	-109.308	-103.388	214.947	49.402	-104.673	-99.802	-98.523	-92.259	50.137	-94.145	-8191	255	
844.570	1	1	0	0	0.13803	0.13541	0.2183	0.049834	0.089054	0.072972	0.10484	0.23087	0.21781	0.088676	0.29372	0.1475	0.21162	0.060022	0.21039	0.16809	-2.7896	-2.8396	-2.7792	-3.1875	-2.6562	-3.0354	-3.1667	-2.9437	-3.3063	-2.9271	-3.0042	-3.0958	-2.575	-3.0042	-2.9917	-2.85	-1.681	158.354	-48.848	-118.352	220.148	182.697	237.872	190.241	-68.964	3.521	185.872	167.726	186.585	-118.799	-8.233	125.469	0.0013104	0.0011379	2.8157e-05	711.7	9.6426e-06	1.9576e-05	1005.4	211.79	8.2578e-06	1.5455e-05	381.18	124.66	64.045	25.28	5.8203e-06	60.971	0.001034	0.0010364	0.00028767	723.9	1.1261e-05	1.1302e-05	991.02	215.32	1.1188e-05	1.1191e-05	379.89	127.25	67.628	27.057	1.0921e-05	60.421	63.707	-76.618	-40.379	-108.446	-108.680	43.560	-109.256	-103.176	125.489	146.760	-104.205	-99.611	-98.195	-92.171	88.750	-94.463	-8191	255	
844.666	1	1	0	0	0.060801	0.19468	0.08049	0.17325	0.20487	0.078599	0.10949	0.2215	0.021837	0.25633	0.040959	0.25471	0.17676	0.28552	0.093211	0.18988	-2.6479	-2.8708	-2.875	-3.1583	-2.5875	-2.95	-3.1771	-2.7667	-3.0646	-2.9604	-2.8625	-3.1375	-2.8479	-3.0333	-2.8833	-2.7708	-71.760	7.000	52.989	178.925	74.001	93.734	190.675	202.858	15.329	108.248	123.792	-84.402	-96.705	-106.552	-12.855	-95.393	0.0011316	0.0012085	0.00032011	719.45	1.2082e-05	1.9195e-05	1005.4	211.02	1.1398e-05	9.8224e-06	376.5	124.34	63.857	25.672	9.9055e-06	60.978	0.00099709	0.0010039	0.00028173	724.47	1.0962e-05	1.0958e-05	987.37	214.44	1.1034e-05	1.1e-05	378.42	126.34	67.507	27.278	1.102e-05	60.576	65.333	-96.940	-88.644	-108.583	-34.201	-35.982	-109.437	-103.064	-42.299	-31.233	-104.427	-99.659	-98.386	-91.915	-57.997	-94.298	-8191	255	
844.739	1	1	0	0	0.093368	0.1775	0.19803	0.047336	0.28412	0.15482	0.17869	0.097047	0.22747	0.043601	0.15528	0.098093	0.081871	0.093593	0.18885	0.036371	-2.7167	-2.8229	-2.6833	-3.3563	-2.575	-3.0646	-3.2917	-2.6396	-3.1	-2.925	-2.8271	-3.1479	-2.875	-3.1188	-3.1792	-2.7396	-28.841	-78.706	220.745	199.568	92.584	-14.530	198.602	-91.279	200.001	-66.948	192.801	215.763	123.404	44.996	91.646	-32.189	0.0013943	0.00086326	0.00028352	732.55	6.2801e-06	1.4957e-05	1022	215.02	7.9998e-06	3.3192e-06	381.57	126.09	64.759	26.273	7.3991e-06	62.56	0.0010032	0.0010059	0.00027937	734.41	1.0942e-05	1.0993e-05	1001.6	217.8	1.0933e-05	1.1056e-05	382.24	128.13	68.754	28.042	1.13e-05	61.942	34.497	102.534	-101.920	-108.731	207.029	122.594	-109.504	-103.780	-16.922	3.672	-104.407	-99.133	-98.403	-92.579	-11.062	-94.425	-8191	255	
844.858	1	1	0	0	0.086023	0.22362	0.15847	0.34405	0.26574	0.16686	0.44852	0.22228	0.25939	0.097865	0.22991	0.049923	0.09495	0.098412	0.13716	0.50749	-2.6104	-2.9667	-2.7062	-3.1396	-2.7667	-2.7417	-3.2417	-2.8208	-3.1396	-2.9792	-2.8917	-3.25	-2.9188	-2.9729	-3.0458	-2.7583	152.968	-78.902	219.030	236.974	194.108	210.983	195.987	199.861	54.982	9.416	217.907	149.932	105.101	92.139	205.952	148.084	0.00097044	0.00062936	0.00022904	743.65	1.1071e-05	1.1857e-05	1032.8	214.38	7.3209e-06	1.2178e-05	378.87	125.89	64.941	26.598	6.0214e-06	63.445	0.0010381	0.001047	0.00029205	749.85	1.1595e-05	1.1652e-05	1023.1	218.45	1.1706e-05	1.1795e-05	382.45	129.52	69.885	28.614	1.1699e-05	63.096	60.325	145.193	-46.489	-108.544	-57.928	-59.093	-109.338	-103.174	-117.897	215.329	-104.446	-99.511	-98.380	-92.620	89.346	-94.513	-8191	255	
844.954	1	1	0	0	0.099912	0.32287	0.20429	0.16648	0.23842	0.17631	0.17331	0.3195	0.11094	0.16042	0.36803	0.17524	0.13491	0.068369	0.05031	0.078768	-2.6437	-2.8292	-2.6813	-3.2396	-2.8563	-2.8854	-3.275	-2.6917	-3.1104	-3.0396	-2.5708	-3.05	-2.8396	-3.0583	-3.2042	-2.9062	192.348	-7.327	40.608	-43.022	-22.298	-60.441	-85.264	152.926	80.523	-104.416	-109.924	195.415	-115.633	191.770	188.722	-101.400	0.0014427	0.001516	0.00030732	751.41	4.2119e-06	9.8313e-06	1055.9	215.79	1.5801e-05	1.1416e-05	382	125.95	65	26.676	7.9585e-06	62.735	0.0010687	0.0010705	0.00030036	762.26	1.188e-05	1.1982e-05	1039.5	220.89	1.2019e-05	1.2161e-05	385.94	130.05	70.164	28.603	1.2099e-05	62.586	32.309	207.678	219.522	-108.236	-72.460	67.686	-109.330	-102.920	-47.562	59.559	-104.097	-99.589	-98.141	-92.025	26.678	-94.010	-8191	255	
845.050	1	1	0	0	0.11321	0.059246	0.3794	0.13797	0.10229	0.26774	0.15613	0.098824	0.13294	0.333	0.18787	0.20445	0.1463	0.12718	0.21086	0.14345	-2.4417	-3.0167	-2.5625	-2.9875	-2.9479	-2.6854	-3.0917	-2.95	-2.9208	-3.2146	-2.9333	-3.1979	-2.9875	-2.9292	-3.1146	-2.8312	106.266	145.984	183.355	227.787	-1.106	175.096	165.397	-57.366	-35.597	88.971	120.902	4.677	-77.126	-57.284	138.093	169.611	0.0015704	0.00059091	0.00025097	755.97	1.1129e-05	1.9096e-05	1058.3	212.51	1.1887e-05	1.0129e-05	372.5	123.59	63.954	25.634	7.7701e-06	59.987	0.0011062	0.0011216	0.00031499	767.63	1.2545e-05	1.2584e-05	1045.2	219.14	1.2787e-05	1.2773e-05	380.81	128.79	69.65	28.102	1.29e-05	60.73	14.976	201.321	37.737	-108.248	-20.314	14.244	-109.106	-103.305	10.987	89.690	-104.070	-98.983	-98.264	-92.210	-35.670	-94.086	-8191	255	
845.171	1	1	0	0	0.25056	0.20997	0.15676	0.11309	0.29609	0.1117	0.17089	0.046222	0.17267	0.066723	0.17061	0.081865	0.064537	0.16932	0.15987	0.28794	-2.4896	-3.0979	-2.7146	-3.15	-2.9938	-2.6917	-3.2583	-2.9375	-2.9125	-3.1396	-2.7542	-3.0271	-2.9938	-2.7458	-3.1625	-3.0854	-76.540	82.448	29.388	167.014	-43.723	230.785	169.363	175.967	77.059	-86.124	-37.143	193.536	-35.265	86.426	110.646	178.391	0.0013098	0.00070853	0.00024816	752.78	1.0601e-05	3.1372e-06	1051.8	208.33	1.7245e-05	7.2638e-06	365.91	122.73	63.297	25.594	4.4517e-06	59.322	0.0011819	0.0011912	0.00033162	768.57	1.3013e-05	1.3123e-05	1045	216.85	1.3086e-05	1.3152e-05	376.89	127.32	69.522	27.978	1.3184e-05	60.211	47.912	-108.473	26.644	-108.519	-104.340	62.943	-108.894	-103.226	182.489	61.283	-103.796	-99.023	-97.867	-92.026	118.353	-93.897	-8191	255	
845.267	1	1	0	0	0.10114	0.11273	0.14063	0.22787	0.1934	0.12736	0.077862	0.14216	0.16217	0.099277	0.21141	0.2248	0.19291	0.099664	0.13289	0.19992	-2.4125	-3.0708	-2.65	-3.2333	-3.1125	-2.8208	-3.4188	-2.9813	-2.6937	-3.2	-2.8083	-3.0021	-3.1188	-2.6417	-3.1229	-3.0792	158.466	217.252	-4.170	155.734	197.860	-57.252	147.984	-91.312	-31.446	7.148	101.725	65.009	40.424	221.709	-92.210	151.645	0.0012082	0.0002421	0.00036919	750.59	8.9979e-06	1.0197e-05	1046.3	207.68	8.1862e-06	7.9816e-06	364.3	121.04	62.609	25.048	7.2404e-06	58.505	0.0012032	0.0012157	0.00033832	769.16	1.3202e-05	1.33e-05	1043.2	216.53	1.3399e-05	1.3284e-05	376.26	126.6	68.922	27.591	1.3364e-05	59.562	52.069	25.812	55.157	-108.171	138.104	-114.463	-108.798	-103.132	77.629	-93.033	-103.967	-99.326	-98.278	-92.179	0.157	-94.341	-8191	255	
845.363	1	1	0	0	0.24511	0.066292	0.13581	0.041232	0.095584	0.03899	0.18384	0.31077	0.094723	0.033432	0.12438	0.17574	0.14452	0.34916	0.21009	0.28197	-2.3354	-3.2896	-2.7	-2.9708	-3.0521	-2.6063	-3.1083	-2.9688	-2.6708	-3.1917	-2.7396	-2.8521	-3.1333	-2.6729	-3.1979	-3.0708	-69.052	102.650	-45.169	120.553	-33.133	117.183	-47.690	75.147	-51.007	235.627	-66.681	152.134	-75.455	-120.536	195.994	-82.209	0.0016229	0.00038344	6.5155e-05	745.09	4.84e-06	8.5142e-06	1040.8	205.85	1.9125e-05	8.31e-06	364.15	117.78	61.084	24.391	1.2005e-05	56.872	0.001206	0.0012276	0.00034038	763.72	1.3276e-05	1.3444e-05	1037.5	215.46	1.3439e-05	1.3514e-05	373.06	125.04	68.004	27.075	1.3502e-05	58.041	57.898	42.877	-7.676	-108.332	128.884	93.165	-109.331	-103.567	-63.131	169.941	-104.577	-99.237	-98.056	-92.200	-53.305	-94.272	-8191	255	
845.435	1	1	0	0	0.27477	0.24844	0.090476	0.14155	0.081938	0.1712	0.15315	0.087367	0.14338	0.08338	0.21562	0.39465	0.21703	0.14157	0.057206	0.14423	-2.2708	-3.2	-2.8667	-2.7208	-3.2771	-2.6937	-3.1271	-3.0229	-2.7583	-3.0375	-2.7812	-2.925	-3.2604	-2.6771	-2.9437	-3.1521	142.820	2.097	196.849	-47.737	18.388	-3.537	203.709	194.574	173.944	224.696	200.123	235.373	132.584	-89.296	-11.043	79.352	0.0010198	0.00062813	0.0003093	729.58	3.5262e-06	7.1701e-06	1023.4	204.03	1.192e-05	1.0463e-05	360.31	117.85	61.422	23.916	8.2523e-06	57.047	0.0012092	0.0012307	0.0003395	753.03	1.3319e-05	1.3267e-05	1024	212.58	1.3292e-05	1.3408e-05	370.99	124.11	67.354	26.556	1.3044e-05	57.875	34.137	-87.244	-7.564	-108.256	230.380	234.501	-108.876	-103.328	17.154	74.137	-104.077	-98.551	-98.016	-92.542	6.615	-93.731	-8191	255	
845.554	1	1	0	0	0.2724	0.13244	0.082603	0.20139	0.19328	0.028959	0.085634	0.25778	0.19995	0.15488	0.17515	0.22614	0.19063	0.1994	0.24493	0.075012	-2.4688	-3.0667	-2.7104	-2.9708	-3.0854	-2.8104	-3.0208	-2.9958	-2.5104	-3.1146	-2.9125	-2.975	-3.3271	-2.6688	-2.8292	-3.3125	-43.021	197.919	19.870	75.778	169.525	52.302	215.833	192.501	186.062	222.840	232.385	-94.572	-72.207	199.404	-61.387	220.338	0.0015618	0.0010638	0.00026698	730.84	1.5833e-05	7.3586e-06	1031.4	203.99	5.4918e-06	1.5325e-05	364.23	119.2	61.894	24.594	4.9621e-06	57.721	0.0011765	0.0011824	0.00032993	748.51	1.2935e-05	1.2897e-05	1022.3	212.49	1.2812e-05	1.2861e-05	372.77	124.56	67.602	26.907	1.2567e-05	58.659	35.685	32.693	146.881	-108.439	232.647	226.278	-109.055	-103.016	-15.132	-12.967	-103.578	-98.999	-97.984	-92.106	17.697	-94.168	-8191	255	
845.650	1	1	0	0	0.16614	0.015659	0.23234	0.058475	0.085456	0.17525	0.09062	0.30899	0.29577	0.18071	0.24487	0.12929	0.20473	0.08195	0.17314	0.25713	-2.4542	-2.8854	-2.9437	-2.7938	-3.0958	-2.7979	-3.0042	-3.3125	-2.7396	-3.0854	-3.0417	-2.7	-3.3646	-2.7167	-2.7396	-3.1521	147.996	84.560	-29.061	231.608	224.603	-64.798	147.686	94.983	199.613	101.244	-110.267	131.768	-8.876	209.886	119.283	192.828	0.0027037	0.00073262	0.00021649	734.99	1.3618e-05	4.2472e-06	1022.1	207.79	7.5786e-06	9.8754e-06	370.25	120.7	62.607	25.062	5.6414e-06	58.581	0.0011433	0.0011453	0.00032037	749.02	1.2497e-05	1.2442e-05	1013.3	214.81	1.2376e-05	1.2288e-05	375.38	125.29	67.799	27.156	1.2158e-05	59.335	28.179	91.389	238.091	-108.377	54.604	-50.798	-108.783	-103.233	74.081	15.124	-104.020	-98.681	-98.437	-92.197	44.750	-94.307	-8191	255	
845.746	1	1	0	0	0.11952	0.080648	0.11256	0.033355	0.084148	0.16962	0.12926	0.24154	0.16442	0.077608	0.33076	0.29297	0.16831	0.25759	0.087566	0.40264	-2.4417	-3.125	-3.0292	-2.625	-3.1646	-3.0333	-3.025	-3.2438	-2.7562	-3.0146	-3.225	-2.675	-3.3042	-2.9375	-2.7458	-3.0625	197.587	189.668	196.088	-11.051	12.646	171.075	237.304	125.697	199.355	-18.846	214.340	109.105	-12.952	-77.638	13.140	198.914	0.00077876	0.0011916	0.00013293	723.49	1.0018e-05	1.1007e-05	1012.6	208.12	1.0615e-05	2.0323e-06	369.81	120.06	61.77	24.6	6.2272e-06	57.784	0.0011053	0.0011211	0.00030996	740.48	1.2109e-05	1.2115e-05	1005.6	214.37	1.1982e-05	1.2067e-05	373.59	124.33	66.89	26.669	1.1956e-05	58.148	34.429	-52.962	52.129	-108.613	-35.386	94.008	-109.191	-103.002	-3.917	154.155	-104.150	-99.287	-97.922	-92.094	31.936	-94.148	-8191	255	
845.842	1	1	0	0	0.2497	0.067293	0.11856	0.047992	0.16005	0.063304	0.2122	0.37576	0.16263	0.073977	0.23302	0.23332	0.047329	0.19548	0.18198	0.045464	-2.2729	-2.8271	-3.075	-2.6479	-3.1375	-2.8021	-2.9292	-3.2375	-2.7833	-2.9792	-3.4083	-2.6688	-3.125	-2.7771	-2.7396	-3.0396	180.572	-41.802	182.357	230.319	93.610	159.032	128.834	207.032	106.575	120.044	223.084	-109.809	206.706	220.419	-7.487	236.792	0.0014713	0.0008355	0.00019771	715.48	4.6385e-06	6.655e-06	989.16	204.14	1.8445e-05	6.4947e-06	360.08	117.7	60.451	23.593	7.4392e-06	56.534	0.0010713	0.0010759	0.00030165	723.72	1.1731e-05	1.1693e-05	977.17	208.7	1.1572e-05	1.1606e-05	364.6	121.42	65.172	25.651	1.151e-05	56.73	25.540	-84.777	143.585	-108.862	218.018	-113.248	-108.933	-103.085	-67.619	91.693	-103.581	-99.142	-97.500	-91.849	-25.975	-93.747	-8191	255	
845.963	1	1	0	0	0.11119	0.14992	0.072336	0.29281	0.14168	0.17148	0.19317	0.11436	0.1367	0.18565	0.40495	0.21541	0.084694	0.22746	0.087855	0.29735	-2.3833	-2.8854	-3.0021	-2.6937	-2.8229	-2.9062	-2.7146	-3.225	-2.8063	-2.8729	-3.3333	-2.6437	-2.9979	-3.0292	-2.7708	-3.2562	-59.900	72.232	-114.713	156.853	209.029	43.563	162.411	96.441	-1.992	237.236	143.071	227.697	174.813	-70.838	-13.341	142.241	0.0011498	0.00089677	0.00023467	701.89	1.4324e-05	1.7109e-05	980.92	203.78	1.275e-05	1.3926e-05	362.7	118.63	60.801	24.077	1.2388e-05	57.179	0.0010434	0.0010477	0.00029142	712.99	1.1294e-05	1.1258e-05	968.41	207.78	1.1247e-05	1.1442e-05	365.13	121.54	65.089	25.907	1.1383e-05	57.492	41.039	69.403	-25.212	-107.736	162.858	-114.385	-108.451	-102.374	3.457	116.413	-102.915	-97.975	-96.753	-90.409	11.322	-90.811	-8191	255	
846.035	1	1	0	0	0.069509	0.19322	0.061416	0.13126	0.1413	0.18382	0.15724	0.19874	0.39123	0.070814	0.072289	0.11888	0.27993	0.1392	0.086731	0.28812	-2.4833	-2.7479	-3.1188	-2.8229	-3.0583	-2.9833	-2.9562	-3.2333	-2.9021	-2.9042	-3.1958	-2.95	-2.875	-3.0458	-2.6167	-3.2396	-34.853	127.078	-75.034	-107.611	55.918	235.665	-69.333	-46.943	189.139	56.505	104.132	67.870	243.020	233.069	-72.877	99.719	0.00053456	0.0012491	0.00015922	695.27	4.3704e-06	9.5235e-06	969.36	199.26	1.8879e-05	6.6318e-06	355.7	115.73	59.669	23.509	5.9598e-06	55.796	0.0010114	0.00103	0.0002863	712.67	1.1263e-05	1.1192e-05	966.72	206.57	1.1085e-05	1.1226e-05	362.19	120.15	64.646	25.574	1.1051e-05	56.454	14.068	-8.559	-90.280	-103.945	-58.563	-68.567	-104.199	-98.455	181.892	86.599	-99.487	-94.119	-93.500	-87.199	53.702	-89.450	-8191	255	
846.131	1	1	0	0	0.22798	0.15645	0.10195	0.24655	0.11036	0.24021	0.31898	0.15039	0.12605	0.31252	0.22056	0.19245	0.1591	0.12411	0.37209	0.071661	-2.4979	-2.8125	-3.2479	-2.9083	-3.0458	-3.1521	-2.8021	-3.35	-3.0896	-2.725	-3.2313	-3.0417	-3.0042	-3.2042	-2.6583	-3.1583	163.811	-14.922	-15.147	205.325	180.597	-22.447	232.408	196.520	-84.339	-100.699	129.845	-113.854	-56.658	-38.157	211.371	235.007	0.0012564	0.0013946	0.00027607	684.71	7.2286e-06	8.5773e-06	955.31	200.43	6.0356e-06	1.5487e-05	355.86	115.73	59.116	23.314	3.3094e-06	55.9	0.0010024	0.0010083	0.00028238	703.91	1.0995e-05	1.104e-05	953.69	206.57	1.0864e-05	1.092e-05	361.98	119.93	64.143	25.407	1.0703e-05	56.199	26.436	-105.432	25.029	-103.668	168.784	-22.336	-103.985	-98.021	-14.897	0.937	-99.023	-94.364	-93.236	-87.499	-37.282	-89.180	-8191	255	
846.251	1	1	0	0	0.053464	0.11031	0.18773	0.13686	0.058689	0.085539	0.32481	0.13486	0.13963	0.14814	0.10751	0.2247	0.14515	0.36903	0.16107	0.23248	-2.4917	-2.9125	-3.1188	-3.0187	-2.9521	-3.1042	-2.9583	-3.1375	-3.0521	-2.9062	-3.4188	-2.925	-3.025	-3.2333	-2.5708	-3.1688	-78.225	-77.292	-60.653	189.407	-74.374	179.172	-93.497	219.961	-8.676	124.864	-107.286	185.208	-18.881	-113.126	241.962	215.989	0.00049562	0.00082368	0.00019972	679.41	1.5788e-05	1.6235e-05	962.47	201.3	1.46e-05	5.2746e-06	357.28	117.48	60.24	23.8	1.0777e-05	56.155	0.00096879	0.00098926	0.00027701	698.68	1.095e-05	1.098e-05	961.37	208.02	1.1094e-05	1.1173e-05	365.62	121.81	65.137	26.023	1.1302e-05	56.755	31.033	-11.643	228.426	-103.523	1.443	56.804	-104.241	-98.043	181.007	45.585	-99.062	-94.560	-93.148	-87.654	83.986	-89.080	-8191	255	
846.348	1	1	0	0	0.069315	0.38782	0.12098	0.022985	0.29314	0.14901	0.28575	0.2345	0.064033	0.095136	0.24372	0.15915	0.19491	0.16708	0.20936	0.36876	-2.8208	-2.7146	-3.1146	-3.0312	-2.7875	-3.2208	-2.8292	-3.0104	-3.0021	-2.9042	-3.1292	-3.0021	-2.9229	-3.1542	-2.7396	-3.2375	-90.642	25.690	69.178	209.450	-71.842	107.966	202.979	242.204	98.376	-9.545	-34.193	-38.294	78.359	207.109	-37.332	-100.589	0.00057307	0.0006278	0.00037499	685.91	8.682e-06	1.3025e-05	963.8	195.2	8.3294e-06	1.0837e-05	347.73	112.41	58.22	22.726	9.912e-06	53.731	0.0010181	0.0010294	0.0002845	704.51	1.1257e-05	1.1286e-05	960.63	202.59	1.1419e-05	1.1399e-05	355.12	117.87	63.827	25.087	1.1476e-05	55.036	9.179	131.477	53.246	-103.836	-81.743	-28.190	-104.386	-98.253	-88.109	74.451	-99.423	-94.004	-93.142	-87.129	41.500	-89.294	-8191	255	
846.444	1	1	0	0	0.24905	0.034501	0.13797	0.11389	0.1133	0.18216	0.052612	0.16871	0.16127	0.21482	0.11827	0.26815	0.016575	0.1019	0.12915	0.056134	-2.8625	-2.6521	-3.1292	-2.9979	-2.7938	-3.2521	-2.8375	-3.0396	-3.0812	-2.6562	-3.2125	-3.1979	-2.6333	-3.35	-2.8083	-2.8812	111.990	-64.278	148.882	199.216	81.098	228.106	142.299	201.937	-57.172	185.084	219.175	-24.229	195.396	-48.452	0.250	214.481	0.00080168	0.00061235	6.5445e-05	687.63	7.3469e-06	1.2737e-05	961.46	193.33	1.2704e-05	4.9055e-06	340.88	111.01	56.944	22.158	7.5792e-06	52.125	0.0010325	0.0010379	0.00029034	707.05	1.1467e-05	1.1558e-05	962.17	200.94	1.1579e-05	1.1692e-05	350.26	116.89	62.824	24.617	1.1555e-05	53.332	34.957	243.728	223.522	-103.588	-65.042	24.983	-104.032	-98.240	-55.928	-34.357	-99.337	-94.761	-93.464	-87.150	-74.169	-89.257	-8191	255	
846.540	1	1	0	0	0.1667	0.26647	0.17668	0.36478	0.18687	0.20645	0.19003	0.00091813	0.12518	0.20218	0.32166	0.1231	0.27305	0.21898	0.10915	0.2638	-2.8271	-2.7271	-3.075	-2.9271	-2.6937	-3.2729	-3.0563	-2.8208	-3.1437	-2.8125	-3.0521	-3.1604	-2.875	-3.4604	-2.9729	-3.0521	133.255	104.245	17.206	229.133	165.931	-26.409	130.271	180.000	139.416	210.853	151.798	101.675	221.113	6.092	164.060	165.972	0.00066274	0.00084208	0.00017713	679.57	2.7858e-06	4.9878e-06	947.72	185.56	1.7609e-05	9.9091e-06	325.42	106.65	55.401	21.676	9.3885e-06	50.639	0.0010468	0.0010564	0.00029167	698.18	1.1513e-05	1.1613e-05	948.75	194.32	1.1494e-05	1.1509e-05	337.76	112.76	61.453	24.262	1.1767e-05	52.349	57.209	69.577	25.048	-103.488	167.546	-4.543	-104.182	-98.094	215.116	2.818	-99.529	-94.054	-92.847	-87.939	-29.566	-89.082	-8191	255	
846.634	1	1	0	0	0.12155	0.29179	0.23741	0.27031	0.049907	0.13956	0.23419	0.22177	0.1321	0.094725	0.20555	0.18462	0.1143	0.29905	0.11553	0.097669	-2.8333	-2.5854	-2.9271	-3.0187	-2.8333	-3.1625	-3.0979	-2.7875	-3.3104	-2.8583	-3.2042	-3.3125	-2.7438	-3.2812	-3.1083	-2.8729	40.073	237.766	110.368	80.912	-81.148	0.708	194.725	224.488	-20.882	192.131	83.768	241.076	162.804	-81.233	-28.898	172.254	0.0010234	0.00067602	0.00040818	676.99	9.012e-06	1.2226e-05	955.53	187.16	7.3224e-06	5.7245e-06	327.43	107.9	56.365	21.784	1.0322e-05	50.813	0.0010568	0.001077	0.00029989	700.48	1.1778e-05	1.1819e-05	960.95	196.37	1.1845e-05	1.1815e-05	342.01	113.95	62.285	24.478	1.1996e-05	52.68	62.306	-93.677	-59.749	-103.543	180.426	74.721	-104.470	-98.258	49.545	112.583	-99.035	-94.094	-93.470	-87.244	13.684	-89.111	-8191	255	
846.730	1	1	0	0	0.22356	0.21219	0.10904	0.33926	0.026693	0.082393	0.14848	0.40424	0.12796	0.20402	0.024258	0.22714	0.12026	0.13033	0.057854	0.15221	-2.8688	-2.8667	-3	-3.2875	-2.8271	-2.9938	-3.2354	-2.7687	-3.1458	-2.9	-3.0917	-3.3354	-2.8083	-3.1208	-3.2042	-3.0396	-101.984	188.073	202.453	-65.976	-63.136	119.846	167.934	222.221	124.702	0.942	-108.723	219.356	-97.397	209.268	-38.110	26.086	0.00056413	0.00018939	0.00014351	687.71	1.2855e-05	1.3428e-05	961.62	188.11	1.1418e-05	4.21e-06	330.47	107.5	56.274	21.758	5.7216e-06	50.835	0.0010893	0.0011009	0.00030542	709.97	1.1963e-05	1.204e-05	971	197.39	1.2065e-05	1.1984e-05	343.05	113.99	62.364	24.406	1.212e-05	52.571	41.947	4.224	-105.433	-103.714	26.819	160.316	-104.271	-98.549	160.439	153.497	-98.949	-94.776	-93.444	-87.730	207.381	-89.158	-8191	255	
846.851	1	1	0	0	0.14179	0.16671	0.18219	0.12256	0.25172	0.16216	0.22397	0.063713	0.13684	0.15243	0.20271	0.18536	0.19943	0.14254	0.2457	0.09162	-2.9208	-2.7313	-2.8125	-3.2979	-2.7438	-3.0687	-3.2687	-2.7792	-3.2729	-2.8812	-2.6188	-3.2396	-2.6708	-2.9458	-3.1792	-2.6792	63.629	192.381	38.681	229.094	-51.305	-121.135	153.758	221.379	-56.351	33.019	206.583	195.536	28.356	229.107	204.213	135.631	0.00059043	0.0016979	0.00043308	695.84	3.0193e-06	5.0689e-06	988.74	189.09	3.1878e-06	1.4357e-05	333.36	108.28	57.277	22.041	5.3666e-06	50.787	0.0010899	0.0011085	0.00030745	712.93	1.2094e-05	1.212e-05	981.12	197.92	1.2101e-05	1.2263e-05	343.11	114.09	62.781	24.46	1.2415e-05	52.244	49.661	-20.264	176.825	-109.359	-106.135	192.406	-110.181	-104.177	158.517	1.890	-105.700	-100.242	-99.167	-92.605	51.348	-94.504	-8191	255	
846.947	1	1	0	0	0.097635	0.39825	0.35375	0.20671	0.10125	0.11267	0.14308	0.14084	0.071066	0.21372	0.24099	0.17731	0.24812	0.19156	0.23908	0.19205	-2.6042	-3.0458	-2.9729	-3.3021	-2.9083	-3.0208	-3.1146	-2.7771	-3.1125	-2.9771	-2.6688	-3.1	-2.7062	-2.8917	-3.2167	-2.9042	54.822	192.370	-2.049	-72.211	190.705	234.725	189.728	-73.883	-67.200	-74.717	152.070	233.504	196.355	167.896	12.740	-113.060	0.0010677	0.001259	0.0002004	694.9	4.668e-06	1.3599e-05	991.07	188.86	6.961e-06	6.4332e-06	336.23	106.88	56.921	22.438	5.5348e-06	52.106	0.0011235	0.0011297	0.00031705	714.28	1.251e-05	1.2517e-05	986.23	197.98	1.2506e-05	1.2596e-05	344.17	113.78	63.168	24.986	1.2285e-05	53.617	45.324	-49.409	226.188	-109.173	-60.747	72.799	-109.533	-104.310	31.651	-98.273	-105.006	-99.555	-98.787	-93.394	-68.380	-94.887	-8191	255	
847.043	1	1	0	0	0.16586	0.27858	0.043186	0.15529	0.048676	0.12186	0.09274	0.32075	0.17832	0.10861	0.25362	0.037002	0.26361	0.10164	0.085837	0.32249	-2.6854	-2.8667	-2.8042	-3.3458	-2.8083	-2.9188	-3.2354	-2.8104	-2.9542	-2.7625	-2.7375	-3.1771	-2.8625	-2.8521	-3.1375	-2.9167	-112.074	-35.395	-102.188	180.410	140.584	130.916	172.259	54.933	44.990	-27.685	-120.934	174.512	-37.131	157.120	215.564	191.840	0.00111	0.0010249	0.00016808	724.37	2.4708e-05	3.9158e-06	1010.1	196.62	1.2325e-05	5.4241e-06	341.28	110.66	58.875	23.168	7.9423e-06	53.154	0.0011108	0.0011194	0.00031092	734.69	1.2263e-05	1.2326e-05	1004.3	203.64	1.2277e-05	1.2409e-05	351.17	116.21	64.167	25.621	1.2258e-05	54.564	39.178	-28.929	225.602	-108.881	65.336	155.038	-110.342	-104.290	-86.538	147.187	-104.918	-99.053	-98.509	-93.107	60.667	-94.555	-8191	255	
847.140	1	1	0	0	0.35305	0.11612	0.062149	0.21751	0.10162	0.23573	0.14815	0.22481	0.029544	0.15603	0.10247	0.019424	0.017071	0.13756	0.24076	0.12793	-2.5	-3.1813	-2.6104	-3.2854	-2.7771	-2.7354	-3.1896	-2.6583	-2.9583	-3.0708	-2.7875	-3.1604	-2.9688	-2.8438	-3.1625	-2.9167	-34.310	10.687	-113.247	200.305	78.654	-25.849	68.664	-77.463	207.003	94.615	-103.932	-61.961	164.983	237.957	80.232	167.182	0.0009621	0.0006784	0.00025989	725.12	2.9879e-06	9.4894e-06	1015.7	196.7	9.0326e-06	7.3715e-06	345.65	110.93	58.17	23.352	1.1459e-05	53.581	0.0011061	0.0011146	0.00030971	738.9	1.2186e-05	1.2146e-05	1007.1	202.95	1.2018e-05	1.2087e-05	352.23	116.82	63.97	25.475	1.193e-05	54.619	78.455	-109.279	202.919	-109.148	-74.411	2.269	-109.918	-104.038	-13.042	-14.778	-104.509	-100.010	-99.029	-92.728	43.254	-94.517	-8191	255	
847.260	1	1	0	0	0.014845	0.11734	0.11344	0.16533	0.22683	0.12847	0.33291	0.22947	0.25656	0.36315	0.17508	0.15368	0.073195	0.17306	0.044752	0.15298	-2.6208	-3.0271	-2.8021	-3.0083	-2.8208	-2.7646	-3.3667	-2.7333	-2.9104	-3.3583	-2.7479	-3.0938	-2.9896	-2.7938	-3.0729	-2.8333	-99.585	134.730	75.853	176.950	7.194	201.953	-106.978	-70.766	-43.315	-36.336	-43.948	71.866	20.524	-85.722	228.512	127.351	0.0012066	0.0010934	0.0002793	714.92	9.1933e-06	7.6079e-06	1013.5	197.93	4.4726e-06	8.6898e-06	346.72	112.08	58.603	23.153	3.3528e-06	53.625	0.0010843	0.0010877	0.00030367	731.17	1.185e-05	1.2012e-05	999.97	203.64	1.193e-05	1.1978e-05	353.78	117.39	63.994	25.31	1.204e-05	54.648	26.162	169.796	-93.691	-109.152	-59.731	-15.766	-109.688	-103.897	99.934	195.764	-104.512	-99.824	-99.064	-92.696	71.521	-94.315	-8191	255	
847.332	1	1	0	0	0.22807	0.097479	0.19882	0.14317	0.23654	0.082389	0.075068	0.12413	0.17918	0.14877	0.20984	0.24233	0.28816	0.12988	0.16528	0.18772	-2.5	-3.1104	-2.7083	-3.1208	-3.0229	-2.6375	-3.2792	-2.7708	-2.8625	-3.1125	-2.5687	-3.1771	-3.0062	-2.7521	-3.3167	-3.1229	-115.187	-42.539	221.214	213.282	-104.400	39.231	-119.915	221.400	29.993	68.342	12.102	226.074	178.330	174.346	34.873	186.392	0.0010272	0.00042187	0.00017533	721.69	7.9717e-06	8.8022e-06	1014.8	195.33	9.5184e-06	5.9345e-06	348.28	113.29	58.981	23.357	2.9831e-06	55.055	0.0010834	0.0010835	0.00030115	730.12	1.1778e-05	1.1887e-05	999.76	203.09	1.1826e-05	1.1871e-05	354.87	118.16	64.329	25.512	1.2007e-05	55.365	41.130	142.804	211.293	-108.862	144.770	95.837	-109.658	-103.456	201.970	115.654	-104.517	-99.656	-98.197	-93.193	-9.497	-94.433	-8191	255	
847.428	1	1	0	0	0.28166	0.18622	0.10763	0.070274	0.10179	0.23012	0.044849	0.14021	0.13563	0.021915	0.082256	0.022836	0.23877	0.17579	0.15323	0.17623	-2.4333	-3.15	-2.8208	-3.2229	-2.9188	-2.6312	-3.2062	-3.0187	-2.7354	-3.2771	-2.7521	-2.9458	-3.0229	-2.6271	-3.0563	-3.0833	26.098	40.292	235.154	48.596	12.823	220.243	98.040	143.282	142.704	89.248	-89.755	215.679	222.707	118.258	162.198	169.840	0.0009337	0.00061239	0.00021943	726.98	1.183e-05	7.2477e-06	1027.6	196.78	1.3763e-05	9.3054e-06	342.69	109.52	58.195	22.996	1.572e-05	52.865	0.0010939	0.0011019	0.00030869	741.41	1.2145e-05	1.2205e-05	1016.2	204.41	1.2448e-05	1.2524e-05	352.01	116.22	64.401	25.566	1.294e-05	54.447	62.261	44.751	-39.839	-108.660	-49.020	54.107	-109.763	-104.242	-12.440	105.495	-104.835	-100.143	-98.824	-92.948	123.456	-94.731	-8191	255	
847.524	1	1	0	0	0.091652	0.053171	0.12209	0.071799	0.079705	0.34378	0.22235	0.11665	0.43901	0.092807	0.32789	0.1522	0.19027	0.17965	0.057483	0.32818	-2.275	-2.9688	-2.7729	-2.9729	-3.1188	-2.7229	-3.1771	-3.0438	-2.7979	-3.2354	-2.7708	-2.8438	-3.0458	-2.5646	-2.8708	-2.9646	29.221	56.574	184.648	203.849	200.386	195.836	167.207	-17.456	-104.250	99.734	188.882	215.217	55.228	-2.512	165.010	190.842	0.0009014	0.0015307	0.00016004	733.85	2.0257e-05	1.2284e-05	1032	200.77	9.281e-06	1.0366e-05	340.12	108.29	57.177	22.467	1.7587e-06	51.841	0.0011716	0.0011904	0.00033361	753.09	1.3205e-05	1.3224e-05	1027.5	210.52	1.3348e-05	1.3229e-05	353.89	115.79	64.403	25.446	1.3306e-05	53.749	61.908	237.567	117.788	-108.508	-87.506	24.576	-109.382	-104.065	-114.848	101.276	-104.813	-99.925	-98.692	-92.845	73.004	-94.460	-8191	255	
847.643	1	1	0	0	0.029184	0.11825	0.017238	0.41057	0.15409	0.16275	0.32327	0.33171	0.1012	0.11094	0.16001	0.26875	0.055314	0.090664	0.034406	0.18542	-2.3063	-3.125	-2.7833	-2.8063	-3.1937	-2.7583	-3.1875	-3.1667	-2.8646	-3.2854	-2.9417	-2.9458	-3.2521	-2.6083	-3.1375	-3.1708	34.441	230.528	-102.722	-118.680	20.782	64.267	212.404	183.701	-51.562	124.703	192.150	171.643	-71.917	-26.186	38.605	123.645	0.0013679	0.00060162	0.00012504	729.23	5.7263e-06	1.2659e-05	1038.5	202.44	7.6465e-06	7.0637e-06	345.42	109.06	58.111	23.085	1.1922e-06	52.49	0.001199	0.001221	0.0003408	749.24	1.3413e-05	1.3508e-05	1035	212.59	1.343e-05	1.3479e-05	358.88	116.85	65.112	25.93	1.3564e-05	54.548	47.738	205.395	-45.194	-108.416	-60.498	90.282	-109.691	-103.888	-90.325	171.555	-104.592	-99.428	-98.048	-92.284	5.173	-93.621	-8191	255	
847.739	1	1	0	0	0.17488	0.05139	0.11969	0.28405	0.22416	0.095905	0.30988	0.10402	0.1945	0.12542	0.19781	0.14028	0.194	0.11377	0.15633	0.057263	-2.3312	-3.1646	-2.95	-2.8688	-3.1917	-2.8708	-2.9917	-3.2396	-2.925	-3.1708	-3.0854	-2.9042	-3.3208	-3.1063	-3.0896	-3.3792	232.775	88.630	182.192	197.315	211.572	72.880	217.388	58.980	134.387	72.367	-80.044	158.562	-63.399	194.991	-25.269	204.319	0.00041272	0.00037252	0.00020607	740.65	2.1678e-05	6.9409e-06	1050.6	200.58	1.0241e-05	5.5023e-06	344.53	111.08	58.67	23.205	8.3879e-06	53.686	0.0012174	0.0012271	0.00034134	761.99	1.3331e-05	1.3428e-05	1041.1	209.94	1.3216e-05	1.3276e-05	357.09	118.22	65.343	25.87	1.3159e-05	55.07	97.177	225.522	167.983	-107.439	49.518	20.236	-108.197	-101.916	1.799	85.680	-102.223	-96.641	-96.242	-90.446	72.218	-92.226	-8191	255	
847.835	1	1	0	0	0.19167	0.053338	0.17845	0.072124	0.014423	0.17607	0.27379	0.23396	0.28001	0.096885	0.087071	0.01855	0.072322	0.2342	0.027204	0.1116	-2.3521	-2.9292	-2.9813	-2.9271	-3.2396	-2.9667	-2.9792	-3.3146	-2.8479	-3.0812	-3.0312	-2.7625	-3.3542	-2.8812	-3.0167	-3.2708	187.474	-25.931	20.510	126.080	38.306	172.280	175.350	176.852	16.107	-93.537	158.305	228.245	151.379	193.208	46.146	83.630	0.001315	0.00084736	0.00020871	730.5	5.4721e-06	1.0049e-05	1024	195.36	6.2428e-06	1.8686e-05	339.43	108.81	57.156	22.331	5.0639e-06	51.483	0.001178	0.001195	0.00033152	754.55	1.275e-05	1.279e-05	1027	205.58	1.2732e-05	1.2867e-05	353.08	116.79	64.185	25.29	1.2764e-05	53.755	35.614	161.820	215.447	-103.530	82.812	33.991	-104.185	-98.508	137.318	60.022	-99.287	-94.557	-93.700	-87.322	-57.668	-89.464	-8191	255	
847.931	1	1	0	0	0.4428	0.13643	0.018015	0.35331	0.13858	0.10934	0.27569	0.139	0.35438	0.35542	0.1627	0.35386	0.15733	0.095928	0.28553	0.075466	-2.5187	-3.1479	-3.1208	-2.8271	-3.225	-2.9458	-2.9521	-3.2833	-2.8563	-3.2271	-3.1625	-2.7313	-3.2958	-3.0083	-2.925	-3.3646	-36.040	-75.288	-53.395	118.733	169.547	28.758	186.517	158.333	104.389	145.188	230.793	223.861	-103.349	-64.753	-50.452	10.826	0.00065915	0.0010289	0.0003335	724.96	3.8509e-06	7.4129e-07	1015	193.45	1.6102e-06	1.401e-05	341.08	109.87	58.18	22.713	9.6861e-06	52.69	0.0011411	0.0011531	0.00031874	746.93	1.2387e-05	1.2453e-05	1015.4	204.06	1.2345e-05	1.2223e-05	352.78	117.04	64.393	25.33	1.2245e-05	54.629	22.449	-42.732	52.126	-103.263	-20.757	38.159	-104.408	-98.521	121.214	118.603	-99.288	-94.385	-93.555	-87.395	-59.448	-89.276	-8191	255	
848.028	1	1	0	0	0.049965	0.16386	0.25482	0.14584	0.091409	0.30373	0.10804	0.077369	0.15106	0.21637	0.18253	0.14541	0.18042	0.11296	0.090095	0.13252	-2.45	-2.8917	-3.2542	-2.9104	-3.3563	-3.1042	-3.0312	-3.3583	-3.0479	-3.0687	-3.2875	-2.7729	-3.3042	-3.2604	-2.9167	-3.4437	91.596	167.019	229.814	161.906	173.248	94.661	-107.135	124.207	80.512	-47.085	227.031	10.072	-101.656	82.193	138.410	-74.458	0.0013086	0.0013978	0.00010593	728.27	8.1087e-06	1.5303e-05	1012.6	196.72	4.6385e-06	3.5736e-06	341.83	110.56	58.212	22.527	3.8942e-06	53.29	0.0011	0.0011092	0.0003091	749.82	1.2147e-05	1.2183e-05	1015.4	205.89	1.2134e-05	1.2235e-05	354	117.61	64.238	25.354	1.1967e-05	54.705	75.453	-1.000	193.895	-103.507	112.327	16.038	-104.351	-98.527	14.168	-24.357	-99.341	-94.353	-92.749	-87.557	29.110	-88.944	-8191	255	
848.124	1	1	0	0	0.093262	0.14269	0.12333	0.3732	0.072846	0.064249	0.20416	0.12223	0.089886	0.11319	0.2811	0.12883	0.094668	0.13619	0.10682	0.090171	-2.6125	-2.8792	-3.2229	-2.8979	-3.1458	-3.0938	-2.8563	-3.3104	-3.0292	-3.0229	-3.4104	-2.8646	-3.2812	-3.1833	-2.8083	-3.3271	209.725	188.415	50.166	88.738	184.725	168.295	105.150	229.709	173.522	-74.928	113.035	77.146	43.080	-98.220	-35.957	204.921	0.0006492	0.0014592	0.00015147	724.13	9.1722e-06	1.0497e-05	1005.6	194.01	7.3813e-06	8.5754e-06	339.92	109.05	57.34	22.246	9.0728e-06	52.173	0.0010881	0.0011064	0.00030901	745.7	1.2084e-05	1.2121e-05	1013.2	203.53	1.2131e-05	1.2234e-05	351.59	116.37	63.832	25.055	1.2258e-05	53.812	22.250	18.608	122.562	-103.640	-40.008	-0.542	-104.548	-98.390	196.582	70.433	-99.082	-94.132	-93.464	-87.720	25.717	-89.232	-8191	255	
848.220	1	1	0	0	0.053521	0.21904	0.23972	0.14715	0.19829	0.1766	0.10887	0.16483	0.14969	0.15591	0.11079	0.20896	0.046085	0.22739	0.098796	0.084796	-2.5167	-3.1	-3.1667	-2.8167	-3.1958	-2.9854	-2.9188	-3.2667	-3.0938	-2.9375	-3.3083	-3.1271	-3.1188	-3.2812	-2.8208	-3.2375	11.747	90.427	12.186	192.249	52.657	118.038	226.104	174.257	-87.408	235.588	53.193	212.918	155.470	125.234	157.503	-35.545	0.00095273	0.00036215	0.00012888	718.89	2.1069e-05	1.8213e-05	1006.1	192.02	6.8508e-06	8.4919e-06	334.85	108.98	56.684	22.212	4.3052e-06	51.735	0.0011051	0.0011059	0.00031179	740.26	1.2226e-05	1.2369e-05	1009.3	202.52	1.2459e-05	1.2504e-05	348.27	115.66	63.586	24.976	1.2539e-05	53.606	42.283	171.459	55.862	-103.808	41.475	225.328	-104.274	-98.074	157.742	163.648	-99.314	-94.739	-93.379	-87.757	161.632	-88.843	-8191	255	
848.341	1	1	0	0	0.20182	0.25585	0.26916	0.26857	0.050314	0.056894	0.14567	0.042042	0.12563	0.23046	0.023956	0.11926	0.1315	0.070923	0.17967	0.19106	-2.6562	-2.9042	-3.2271	-2.95	-3.0312	-3.2229	-2.9083	-3.2646	-3.0396	-2.9042	-3.2438	-3.0771	-2.9188	-3.0083	-2.7625	-3.2542	-7.556	89.088	-88.674	86.480	-10.902	-34.304	193.301	129.112	204.220	214.726	-59.016	159.573	138.370	10.757	-12.626	214.680	0.0011889	0.0011828	0.00016056	729.42	6.9465e-06	4.7783e-06	1020.3	194.46	1.6913e-05	1.3126e-05	337.41	108.79	57.788	22.427	4.6332e-06	52.492	0.0011403	0.0011581	0.00031942	751.14	1.2607e-05	1.2715e-05	1028.1	206.1	1.2676e-05	1.2631e-05	352.13	116.64	64.339	25.331	1.2627e-05	54.443	83.444	-64.842	-90.983	-103.432	214.013	37.950	-104.544	-98.575	140.551	214.961	-99.377	-94.357	-93.463	-87.051	236.210	-88.946	-8191	255	
848.437	1	1	0	0	0.098089	0.25118	0.077797	0.21695	0.058753	0.093554	0.12223	0.039949	0.19357	0.20487	0.0079955	0.41539	0.017261	0.42885	0.078603	0.23585	-2.7417	-2.9208	-3.1583	-3.0333	-2.9646	-3.2292	-3.0062	-3.125	-3.1396	-2.8979	-3.2208	-2.9958	-3.1792	-3.15	-2.6833	-3.1521	116.990	-81.581	200.047	137.545	50.596	42.622	157.332	210.369	79.055	-101.190	-111.819	212.711	175.046	109.596	-41.553	30.468	0.00076371	0.0011394	0.00017212	739.03	9.0031e-06	4.381e-06	1035.6	199.05	1.6156e-05	9.7385e-06	342.41	110.59	59.02	22.946	9.525e-06	53.616	0.0011382	0.0011441	0.00031869	761.47	1.268e-05	1.2638e-05	1038.1	209.01	1.2772e-05	1.2629e-05	355.78	117.61	65.154	25.816	1.2589e-05	55.28	-5.303	226.726	-50.148	-103.338	191.692	23.440	-104.325	-98.767	217.553	1.074	-99.486	-94.055	-93.038	-87.422	-43.629	-89.150	-8191	255	
848.533	1	1	0	0	0.36539	0.14127	0.13078	0.11801	0.12094	0.12152	0.22562	0.18819	0.16033	0.25898	0.14158	0.033174	0.26528	0.057366	0.094636	0.051653	-2.7292	-2.6083	-3.0917	-3.1083	-2.9188	-3.2417	-2.8896	-3.0854	-3.1896	-2.4792	-3.0812	-2.9688	-2.6813	-3.1708	-2.725	-3.1042	-39.636	43.648	220.192	139.743	-49.516	162.677	168.572	188.013	-39.284	166.738	235.481	-90.806	189.261	-50.936	55.619	235.858	0.00048252	0.00045708	0.00021273	759.82	1.6531e-05	9.3118e-06	1053.1	200.98	9.5705e-06	1.4232e-05	347.13	111.79	59.046	23.698	1.8196e-05	54.479	0.0011346	0.0011502	0.00031752	769.35	1.2481e-05	1.2367e-05	1040.4	208.32	1.2291e-05	1.2385e-05	355.26	117.76	64.998	25.962	1.2154e-05	55.428	80.137	4.367	-53.662	-109.504	74.323	95.367	-110.364	-104.280	-3.027	100.187	-105.221	-100.351	-99.320	-92.682	49.852	-95.149	-8191	255	
848.629	1	1	0	0	0.044435	0.08109	0.18919	0.098929	0.18276	0.26843	0.20902	0.30466	0.10798	0.20534	0.029748	0.11158	0.23764	0.22301	0.20214	0.10763	-2.6479	-2.6854	-3	-3.0583	-2.8063	-3.2604	-2.9771	-2.9167	-2.9833	-2.7042	-3.1417	-2.9375	-2.8708	-3.2062	-2.7729	-2.7417	103.814	234.852	167.652	-74.851	-15.914	133.626	-120.930	-121.041	72.573	145.050	131.873	-117.296	-94.773	232.863	66.553	231.926	0.00067253	0.0017159	8.2958e-05	739.02	1.2428e-05	1.2998e-05	1029.4	195.29	6.4015e-06	1.6533e-05	344.46	111.54	58.277	23.161	2.5994e-06	54.113	0.0011012	0.0011075	0.00030488	750.03	1.1943e-05	1.2025e-05	1016.9	202.71	1.1885e-05	1.1994e-05	351.55	116.75	63.899	25.455	1.1882e-05	54.65	24.750	215.843	169.310	-109.080	62.018	78.044	-109.803	-104.028	60.202	25.315	-104.180	-99.509	-98.208	-92.100	225.559	-94.207	-8191	255	
848.723	1	1	0	0	0.02149	0.33241	0.1618	0.28274	0.14722	0.079236	0.12183	0.2261	0.059235	0.32818	0.033184	0.062475	0.22449	0.21297	0.083461	0.24593	-2.7521	-2.6333	-3.2188	-3.0604	-2.8875	-3.0458	-3.1312	-2.9688	-3.3042	-2.6396	-3.0917	-3.1792	-2.6792	-3.1271	-3.0479	-2.8646	-58.795	28.299	227.177	216.442	123.504	142.089	-75.422	186.395	129.072	136.349	136.743	215.031	-92.335	230.429	68.574	-115.456	0.00099987	0.00083478	0.00043364	720.94	7.088e-06	3.713e-06	1007.9	191.84	1.0807e-05	7.1435e-06	338.45	109.71	56.99	22.514	2.0176e-06	52.496	0.0010735	0.0010835	0.00029927	732.24	1.1703e-05	1.1669e-05	992.02	197.71	1.1715e-05	1.1764e-05	344.01	114.41	62.433	24.748	1.177e-05	53.495	-12.759	235.202	-12.567	-109.387	83.458	3.245	-109.308	-103.011	65.864	8.673	-103.637	-98.808	-98.083	-91.883	75.029	-93.751	-8191	255	
848.820	1	1	0	0	0.11995	0.2031	0.21421	0.062174	0.16352	0.13092	0.2789	0.10577	0.10609	0.11922	0.13386	0.22184	0.043569	0.34668	0.1699	0.11082	-2.7062	-2.8312	-2.8958	-3.0354	-2.7104	-3.1562	-2.9938	-2.6708	-3.0854	-2.775	-2.9667	-3.0667	-2.7229	-3.1813	-2.9729	-2.7875	-77.239	190.869	192.228	119.249	20.585	219.656	183.398	117.010	-51.471	40.725	143.040	179.826	-93.347	166.900	71.553	131.056	0.0012051	0.00016174	5.5865e-05	714.8	9.0221e-06	4.2462e-06	1001.1	190.88	2.0264e-05	1.0275e-06	333.38	108.16	57.495	22.072	1.6532e-06	51.611	0.001066	0.0010783	0.00029947	728.05	1.1744e-05	1.174e-05	989.64	198.06	1.1745e-05	1.1851e-05	343.58	114	62.744	24.569	1.1954e-05	52.596	58.052	143.380	86.822	-108.690	-6.577	154.803	-109.390	-103.177	-28.253	-11.928	-104.789	-99.907	-98.769	-92.682	211.184	-94.625	-8191	255	
848.940	1	1	0	0	0.21982	0.085541	0.18332	0.13774	0.12062	0.2361	0.15057	0.25584	0.2355	0.14778	0.11557	0.1934	0.10061	0.20186	0.18038	0.124	-2.8854	-2.8208	-2.8708	-3.1188	-2.6729	-3.1021	-3.0229	-2.6021	-2.9562	-2.6562	-2.9521	-2.9625	-2.6333	-2.8771	-3.0187	-2.5917	206.611	61.447	-35.896	173.266	-33.504	44.051	195.287	156.536	-66.731	114.066	108.296	-69.158	172.573	-83.543	187.103	194.857	0.00097079	0.00022798	0.00025653	713.01	8.4879e-06	8.8032e-06	1000.8	189.44	1.2541e-05	1.1466e-05	333.8	108.38	56.611	22.188	1.9386e-06	51.535	0.0010767	0.0010915	0.00030251	726.79	1.1895e-05	1.1845e-05	989.01	197.24	1.1822e-05	1.1874e-05	341.9	113.53	62.229	24.537	1.1742e-05	52.754	79.101	74.222	-56.122	-109.350	-114.453	54.638	-110.050	-104.384	6.174	-105.789	-105.275	-100.567	-99.006	-92.896	18.042	-95.152	-8191	255	
849.036	1	1	0	0	0.065411	0.2057	0.074339	0.18446	0.16514	0.13069	0.096105	0.1928	0.028138	0.14125	0.097627	0.48609	0.061805	0.201	0.22417	0.091229	-2.7104	-2.6396	-2.8146	-3.15	-2.6771	-3.0042	-3.1104	-2.6583	-2.9583	-2.8125	-2.7104	-3.0167	-2.6417	-2.8146	-2.9479	-2.6667	59.698	164.976	-34.634	178.806	9.172	-104.181	95.646	-115.720	236.347	-22.562	39.300	-103.211	41.375	197.430	54.331	209.701	0.00097269	0.0009797	0.0002601	716.19	1.8846e-05	1.176e-05	989.14	187.68	1.6789e-06	3.158e-06	335.2	108.38	56.785	22.196	6.9359e-06	51.977	0.0010667	0.0010764	0.00029511	724.02	1.1616e-05	1.1622e-05	980.06	195.26	1.1526e-05	1.1646e-05	340.8	113.1	62.011	24.352	1.143e-05	52.689	17.229	188.435	100.479	-109.329	9.548	152.519	-110.272	-103.783	-63.438	21.709	-105.514	-100.766	-99.398	-93.401	-8.132	-94.868	-8191	255	
849.132	1	1	0	0	0.21093	0.32889	0.17204	0.060298	0.11003	0.21791	0.11725	0.18092	0.14762	0.059098	0.34957	0.27139	0.29346	0.26948	0.15673	0.39179	-2.6333	-2.6917	-2.8771	-3.1063	-2.8	-2.8375	-3.1271	-2.8063	-3.1063	-2.8479	-2.7604	-3.0333	-2.8625	-2.9542	-2.9021	-2.6833	95.757	-8.899	90.260	116.251	176.535	147.913	-103.279	149.998	-25.464	-93.640	202.592	230.108	179.479	181.406	-24.544	136.056	0.00067414	0.0017438	0.00016042	708.94	3.1766e-06	4.6295e-06	996.2	190.87	5.4245e-06	1.5345e-05	333.19	109	56.634	22.287	1.7262e-05	51.964	0.0010428	0.0010514	0.00029358	721.03	1.1552e-05	1.1635e-05	984.29	197.62	1.1584e-05	1.1621e-05	342.88	114.05	62.24	24.567	1.1609e-05	52.948	17.878	222.204	30.601	-109.292	207.571	234.855	-109.716	-103.560	95.638	99.847	-104.866	-99.747	-98.469	-93.315	-11.057	-94.508	-8191	255	
849.204	1	1	0	0	0.12128	0.020125	0.19171	0.15783	0.26368	0.2181	0.27348	0.18743	0.12181	0.26303	0.35115	0.19812	0.26703	0.078956	0.22708	0.12895	-2.5792	-2.8917	-2.7354	-3.1312	-2.8187	-2.7333	-3.3229	-2.6021	-2.8563	-2.8917	-2.7146	-2.9583	-2.8958	-2.7562	-3	-2.7875	-10.590	186.590	-86.380	-109.342	181.831	-84.131	53.213	137.831	118.545	109.865	159.131	199.645	72.600	189.628	237.500	-91.397	0.00073301	0.00085359	0.00016245	713.53	8.0276e-06	1.6103e-06	1005.4	189.83	2.1502e-05	1.2728e-05	333.23	108.3	57.026	22.188	7.3916e-06	52.046	0.0010561	0.0010685	0.00029721	723.32	1.1709e-05	1.1833e-05	994.97	197.18	1.2004e-05	1.1997e-05	343.1	113.73	62.616	24.749	1.2069e-05	53.294	4.314	-112.613	211.985	-109.615	-5.902	210.663	-110.067	-104.080	127.966	74.822	-104.420	-99.630	-98.939	-93.003	-38.961	-94.908	-8191	255	
849.325	1	1	0	0	0.19237	0.11741	0.12579	0.1407	0.073983	0.17653	0.12407	0.031336	0.062573	0.23124	0.17613	0.16536	0.25757	0.072551	0.33722	0.20464	-2.3979	-3.0187	-2.6063	-3.1021	-2.8979	-2.7646	-3.2771	-2.8563	-2.9646	-2.8625	-2.8354	-3.1771	-2.8812	-2.8167	-2.8979	-2.9229	141.310	141.053	-99.925	207.886	-105.663	66.205	-108.754	186.986	-77.172	68.578	-57.162	-111.608	164.648	225.712	176.459	192.121	0.0015911	0.00056842	0.00028521	722.04	7.2333e-06	9.3087e-06	1017.7	192.07	5.2793e-06	4.9287e-06	334.84	107.44	56.601	22.42	6.0352e-06	52.075	0.0011028	0.001113	0.00031101	737.4	1.222e-05	1.2369e-05	1010.9	201.23	1.2348e-05	1.247e-05	345.9	114	62.939	24.97	1.2241e-05	53.253	76.190	235.887	11.761	-109.559	-18.099	106.425	-110.159	-104.180	129.479	-31.932	-105.077	-99.965	-99.265	-93.732	106.804	-94.748	-8191	255	
849.421	1	1	0	0	0.020604	0.26449	0.13036	0.22638	0.18303	0.16966	0.092283	0.29411	0.17841	0.10246	0.18643	0.11337	0.20599	0.12987	0.17526	0.21269	-2.5417	-3.0417	-2.6333	-2.9292	-2.8792	-2.5938	-3.2375	-2.8125	-2.6708	-3.1562	-2.6208	-3.1146	-3	-2.7562	-2.9833	-3.0792	176.940	-93.066	112.355	156.020	-77.890	213.005	128.373	166.895	195.641	-101.658	212.069	95.317	181.149	-95.692	152.643	194.408	0.0012279	0.0008763	0.00010479	725.82	1.0532e-05	1.364e-05	1015.6	192.81	1.9878e-05	1.3065e-05	335.34	106.69	56.715	22.404	5.825e-06	51.601	0.0011117	0.0011239	0.00031333	740.69	1.2374e-05	1.2351e-05	1013.5	201.78	1.2541e-05	1.2603e-05	344.94	113.67	62.986	24.93	1.2661e-05	53.038	15.993	-85.157	197.674	-109.223	44.400	-53.133	-110.268	-104.990	38.619	54.160	-104.958	-100.134	-99.096	-93.075	-5.773	-94.585	-8191	255	
849.517	1	1	0	0	0.15108	0.088498	0.34465	0.079191	0.21869	0.23806	0.16038	0.059034	0.12497	0.1458	0.25875	0.22365	0.3096	0.29573	0.17327	0.15693	-2.3271	-3.1167	-2.6354	-3.0271	-2.7771	-2.7562	-3.1875	-2.7396	-2.7	-3.1542	-2.7229	-2.8292	-2.8771	-2.5104	-2.975	-2.7375	-47.355	-45.743	230.991	121.484	37.807	156.056	-45.667	184.148	-75.123	171.916	201.358	-101.018	153.961	-11.408	6.190	-82.744	0.0010991	0.00021456	0.00033603	720.89	9.432e-06	1.8221e-05	1011.9	190.92	4.5146e-06	9.2239e-06	331.4	105.2	56.449	22.194	7.1587e-06	50.991	0.0011451	0.0011531	0.00032094	733.8	1.2509e-05	1.2638e-05	1005.3	199.86	1.2645e-05	1.2803e-05	341.95	112.86	62.636	24.825	1.2959e-05	52.839	93.946	222.868	165.356	-109.173	103.777	27.762	-110.229	-104.195	101.381	165.374	-104.951	-99.903	-98.710	-93.110	-1.811	-94.967	-8191	255	
849.613	1	1	0	0	0.05549	0.20782	0.11276	0.30172	0.10809	0.12677	0.10881	0.065662	0.19138	0.2471	0.29604	0.31962	0.18275	0.056757	0.032639	0.16346	-2.3271	-3.1271	-2.7104	-2.9042	-3.0792	-2.7417	-3.0771	-2.8521	-2.6937	-3.1333	-2.9354	-2.8708	-3.0563	-2.5771	-2.9208	-3	212.075	51.120	51.100	-109.371	-112.105	-44.653	10.091	-85.765	159.524	217.589	37.052	153.386	-108.997	-107.821	211.198	170.148	0.0011572	0.00085384	8.3244e-05	726.87	1.8568e-05	1.7755e-05	1030.9	199.66	1.305e-05	8.7674e-06	336.87	107.04	57.375	22.482	1.0331e-05	52.379	0.0011801	0.0012022	0.00033532	747.35	1.3368e-05	1.3346e-05	1032.5	208.74	1.3497e-05	1.3545e-05	352.57	115.36	64.499	25.493	1.3549e-05	54.21	51.430	6.096	113.234	-109.335	202.142	47.490	-109.945	-104.746	-1.710	184.122	-105.243	-100.122	-99.291	-93.057	-94.044	-94.851	-8191	255	
849.732	1	1	0	0	0.05394	0.2219	0.083975	0.038384	0.14028	0.22552	0.19647	0.17941	0.088837	0.050054	0.2097	0.13215	0.034715	0.25612	0.1469	0.14642	-2.6	-2.9146	-2.7958	-3.0375	-3.1562	-2.7708	-3.1125	-2.9396	-2.6979	-3.1104	-2.7896	-2.825	-3.1396	-2.7958	-3.0292	-3.125	221.413	115.789	101.178	193.151	-24.180	55.837	129.306	-93.818	-27.227	52.951	229.247	234.085	-22.878	216.188	116.002	201.942	0.0011501	0.00055162	0.00016398	738.54	9.5694e-06	5.8205e-06	1045.4	203.3	6.5868e-06	2.0211e-05	344.35	107.87	57.824	22.814	9.1079e-06	52.055	0.0012227	0.0012416	0.00034773	761.16	1.375e-05	1.3838e-05	1046.6	214.37	1.379e-05	1.3911e-05	360.35	116.58	65.117	25.806	1.3922e-05	54.32	15.629	-54.738	-5.235	-109.333	22.995	-2.999	-109.760	-104.974	5.115	-51.635	-105.671	-100.474	-99.451	-92.507	-24.933	-94.779	-8191	255	
849.804	1	1	0	0	0.21883	0.16119	0.050793	0.30516	0.19481	0.14684	0.13675	0.24553	0.072938	0.029656	0.055234	0.18938	0.17227	0.099647	0.10788	0.12499	-2.275	-3.0125	-2.6583	-2.9042	-3.2667	-2.6833	-3.1896	-2.8271	-2.6104	-3.2667	-3.0125	-2.7938	-3.1688	-2.6896	-2.9979	-3.0938	153.388	-40.774	1.774	180.585	-46.029	143.812	185.732	-90.720	24.775	11.379	85.266	16.149	-69.419	37.086	-5.127	0.562	0.00059809	0.00038343	9.6002e-05	731.72	1.334e-05	8.5131e-06	1036.1	202.75	2.8818e-06	1.9844e-06	338.55	105.36	56.709	22.572	1.054e-05	51.662	0.0012774	0.0012854	0.00035993	758.78	1.4136e-05	1.4166e-05	1040.1	214.07	1.4091e-05	1.3978e-05	355.19	114.67	64.363	25.647	1.4115e-05	53.905	102.356	155.232	-57.575	-109.018	-99.180	152.758	-109.553	-104.701	121.271	-69.037	-105.382	-99.410	-98.977	-93.406	-11.627	-94.582	-8191	255	
849.900	1	1	0	0	0.089058	0.16581	0.08573	0.033918	0.22372	0.095781	0.12274	0.093173	0.12397	0.1675	0.12695	0.08073	0.20604	0.11023	0.031619	0.073731	-2.3417	-3.0438	-2.8417	-2.8812	-3.0958	-2.7438	-3.0271	-3.1917	-2.4771	-2.9229	-3.0583	-2.8479	-3.2958	-2.7604	-2.8375	-3.1146	35.973	70.335	193.486	66.046	83.931	-50.577	-82.777	-41.881	85.057	-99.771	206.727	113.368	135.080	194.303	-44.099	-86.841	0.00079736	0.0012543	0.00022034	732.23	1.0352e-05	9.6028e-06	1032.2	203.4	9.4574e-06	1.8675e-05	337.33	104.4	57.507	22.479	5.6486e-06	51.664	0.0012788	0.001295	0.00036387	760.55	1.4393e-05	1.4384e-05	1043	215.59	1.4488e-05	1.4475e-05	357.03	115.07	65.001	25.701	1.4329e-05	54.167	38.868	88.059	164.680	-109.156	5.264	77.426	-109.897	-104.584	-61.624	-14.274	-105.343	-99.594	-98.616	-92.585	152.320	-94.265	-8191	255	
850.021	1	1	0	0	0.094319	0.30323	0.17079	0.10739	0.099678	0.17183	0.18694	0.2278	0.18326	0.088411	0.21825	0.21352	0.1398	0.03636	0.07343	0.1479	-2.3	-2.9625	-2.8083	-2.7292	-3	-2.7812	-2.8271	-3.0438	-2.7333	-2.9354	-3.0958	-2.8187	-3.1958	-2.8917	-2.7833	-3.2021	-58.688	-54.359	-15.403	132.487	-33.340	123.512	17.137	-102.019	50.191	123.885	67.700	172.630	216.722	107.683	-85.377	200.829	0.0010914	0.0009077	0.00013468	741.71	1.3338e-05	2.1396e-05	1053.5	207.62	1.712e-05	1.0942e-05	347.73	108.63	58.672	23.098	6.6475e-06	52.745	0.0012876	0.001297	0.00036301	766.6	1.416e-05	1.4357e-05	1054.1	218.5	1.441e-05	1.4602e-05	366.06	118.52	66.69	26.541	1.4759e-05	55.376	69.418	-27.158	22.356	-109.144	-3.697	14.587	-109.577	-104.589	-4.660	144.786	-105.527	-99.312	-98.506	-92.801	55.937	-94.476	-8191	255	
850.117	1	1	0	0	0.15585	0.19504	0.14534	0.067606	0.17692	0.18583	0.21309	0.051989	0.20873	0.32759	0.34188	0.14749	0.31324	0.10695	0.31583	0.093454	-2.1896	-2.9396	-3.2854	-2.6646	-3.2812	-2.8563	-3.0292	-3.2354	-2.8417	-2.6813	-2.9917	-2.5125	-3.1896	-2.7729	-2.5938	-3.1104	-42.402	-60.490	29.731	-27.885	148.795	201.674	-108.702	-5.317	85.925	98.195	189.535	165.218	-94.307	136.454	129.061	-116.959	0.0011174	0.00031169	0.00050506	734.74	6.6863e-06	8.3827e-06	1056.1	211.61	7.0507e-06	1.4739e-05	359.1	110.48	59.819	24.133	3.1053e-06	54.506	0.0013303	0.0013564	0.00037268	766.8	1.4605e-05	1.4785e-05	1060.3	222.84	1.4652e-05	1.4681e-05	374.43	120.62	67.979	27.398	1.4823e-05	57.081	63.451	-83.371	-28.358	-109.179	-38.321	228.322	-109.696	-104.548	46.786	138.290	-104.925	-100.024	-98.480	-93.005	91.598	-94.615	-8191	255	
850.213	1	1	0	0	0.13406	0.1652	0.17994	0.060535	0.095003	0.015734	0.11279	0.090101	0.053807	0.22199	0.46396	0.17114	0.18818	0.14066	0.13063	0.11987	-2.3896	-2.8521	-2.9333	-2.6771	-3.0125	-2.9313	-2.7708	-3.1521	-2.75	-2.6604	-3.0229	-2.7188	-3.025	-3.0396	-2.75	-3.0333	172.399	114.528	49.807	28.715	202.605	227.357	115.553	-75.074	126.231	-58.194	187.933	199.267	7.579	39.824	203.023	156.133	0.0015178	0.0008052	0.00031001	742.44	6.846e-06	1.2439e-05	1054.4	211.58	8.8482e-06	1.4501e-05	356.81	111.26	59.882	24.216	4.4373e-06	55.297	0.0013309	0.0013516	0.0003745	770.34	1.4663e-05	1.4503e-05	1061.3	222.54	1.4375e-05	1.4573e-05	372.58	120.41	67.636	27.483	1.4438e-05	57.321	49.068	7.228	99.683	-108.855	-28.186	93.533	-109.596	-104.270	132.721	39.082	-104.694	-99.418	-98.447	-93.141	-22.762	-94.343	-8191	255	
850.333	1	1	0	0	0.21219	0.24616	0.13742	0.17283	0.32484	0.089518	0.23409	0.056953	0.29321	0.057397	0.3314	0.23382	0.13327	0.16736	0.29377	0.051721	-2.5542	-2.7708	-2.9604	-2.5771	-2.9292	-3.0146	-2.8229	-3.2083	-2.7521	-2.7729	-3.1813	-2.7687	-3.0333	-2.9688	-2.4417	-3.125	85.586	118.856	157.992	174.155	19.014	96.035	215.043	74.219	127.539	196.033	188.248	-99.441	148.467	226.911	38.760	37.822	0.00061737	0.00077475	0.00035366	752.99	1.208e-05	3.7483e-06	1066.2	205.51	8.8767e-06	1.6047e-05	349.97	110.22	59.537	23.663	4.4956e-06	53.669	0.001297	0.0013095	0.00036361	776.64	1.4245e-05	1.4213e-05	1066	217.62	1.4156e-05	1.4103e-05	365.38	119.17	66.928	26.853	1.4066e-05	55.977	52.865	-41.331	-89.752	-108.778	76.307	-66.398	-109.702	-104.138	77.011	95.330	-104.789	-99.644	-98.674	-92.910	-26.906	-94.197	-8191	255	
850.430	1	1	0	0	0.039416	0.12248	0.067624	0.27543	0.14647	0.10885	0.082425	0.18616	0.31454	0.14825	0.064922	0.086125	0.31573	0.11797	0.24795	0.099125	-2.5021	-2.8229	-3.0812	-2.8021	-3.0083	-3.1104	-2.8979	-3.1063	-2.8208	-2.6625	-3.0417	-2.8917	-2.7562	-3.0333	-2.6354	-3.1375	116.609	104.458	22.393	222.477	98.893	23.699	236.721	119.602	169.107	211.698	84.096	198.358	-91.404	38.491	111.834	172.806	0.0016482	0.002593	0.00012189	754.95	1.2561e-05	3.0348e-06	1080.3	209.52	1.2961e-05	1.4174e-05	354.54	112.2	60.543	24.26	1.5445e-05	55.027	0.0012755	0.0012891	0.00035777	782.1	1.4046e-05	1.4051e-05	1072.2	219.64	1.3993e-05	1.4172e-05	370.43	120.68	67.814	27.233	1.4174e-05	57.143	38.361	-58.480	-99.236	-109.049	9.307	111.284	-109.463	-104.521	-33.506	157.932	-105.668	-100.163	-99.158	-92.873	145.769	-94.518	-8191	255	
850.501	1	1	0	0	0.12129	0.41213	0.099394	0.22496	0.20302	0.17304	0.13859	0.083136	0.19449	0.35922	0.086083	0.10621	0.13858	0.14042	0.28355	0.30876	-2.3604	-2.5167	-3.0917	-2.7625	-2.9062	-3.0021	-2.775	-2.9188	-2.9792	-2.675	-3.15	-2.7396	-2.8063	-3.1917	-2.6104	-3.0271	93.910	145.727	-36.529	146.578	-105.309	-89.574	18.722	194.615	-7.410	167.157	169.508	-31.829	-97.452	234.641	62.858	135.865	0.0013924	0.00048303	0.00038077	770.48	4.3282e-06	1.3814e-05	1093.3	213.26	1.8948e-05	1.0636e-05	356.68	112.17	60.581	24.216	4.0076e-06	56.071	0.0012752	0.001291	0.00035845	795.16	1.4156e-05	1.4189e-05	1087.6	224.12	1.4161e-05	1.4314e-05	372.98	121.07	67.985	27.236	1.4273e-05	57.654	24.759	223.859	8.874	-108.927	183.054	-33.008	-109.732	-104.573	141.946	-10.452	-104.721	-99.642	-99.584	-93.148	63.778	-95.126	-8191	255	
850.620	1	1	0	0	0.074251	0.29762	0.21324	0.16581	0.030137	0.27166	0.075566	0.39121	0.15797	0.078154	0.12466	0.11939	0.077398	0.19232	0.21775	0.19264	-2.6375	-2.4625	-2.9958	-2.8021	-2.7229	-3.0042	-2.8542	-3.0938	-2.8792	-2.5042	-3.2417	-2.8479	-2.8021	-3.0729	-2.4875	-2.8125	-108.120	224.131	34.231	233.210	-22.971	152.897	47.077	202.695	-77.833	85.628	48.241	200.019	163.672	-103.682	168.838	101.175	0.0010453	0.0010949	0.00013434	780.13	1.1785e-05	9.3143e-06	1094.4	212.95	3.279e-06	7.1268e-06	362.24	113.72	61.46	24.717	8.0152e-06	56.333	0.0012899	0.0012957	0.00036092	800.66	1.4101e-05	1.4066e-05	1093.7	224.45	1.4092e-05	1.4167e-05	376.45	122.49	68.369	27.577	1.3939e-05	58.049	62.467	60.309	140.049	-109.624	-18.567	47.902	-110.479	-104.708	-73.966	5.727	-104.647	-99.896	-98.611	-93.060	1.196	-94.720	-8191	255	
850.716	1	1	0	0	0.021407	0.16312	0.24416	0.23878	0.27021	0.10121	0.1297	0.20301	0.1327	0.20527	0.22078	0.10614	0.06157	0.16925	0.17031	0.278	-2.6479	-2.575	-2.8104	-2.7917	-2.6667	-3.1583	-2.9708	-3.0625	-3.0021	-2.6208	-3.0083	-2.8896	-2.7458	-3.3292	-2.7125	-2.9104	7.596	-22.707	-121.032	217.877	19.961	197.717	225.861	-43.741	113.453	189.001	152.983	-101.618	-49.981	-30.053	45.964	176.069	0.0015871	0.0006492	3.8174e-05	781.93	7.5701e-06	7.6129e-06	1087.6	208.11	1.4937e-05	9.6002e-06	358.54	114.92	60.942	23.998	1.2574e-05	56.192	0.0012514	0.0012586	0.00034789	799.07	1.36e-05	1.3646e-05	1082.8	216.98	1.3271e-05	1.3274e-05	367.6	120.9	66.956	26.67	1.2935e-05	57.117	45.276	-44.723	32.990	-108.993	-13.605	172.947	-108.760	-103.460	111.367	-47.160	-103.751	-98.999	-98.189	-92.340	-42.194	-94.238	-8191	255	
850.812	1	1	0	0	0.15178	0.17098	0.16155	0.090675	0.097181	0.24514	0.3923	0.37996	0.082918	0.18101	0.15043	0.22886	0.29041	0.10432	0.026666	0.12078	-2.6375	-2.4354	-2.8458	-2.9521	-2.7	-3.2271	-2.6896	-2.9292	-3.1063	-2.5542	-2.9958	-3.0604	-2.7333	-3.0375	-2.6229	-2.8167	-29.000	-108.570	179.180	181.062	-15.190	-109.149	195.622	-113.552	121.827	-54.964	200.734	194.342	157.841	194.039	-69.143	160.664	0.0013458	0.00097915	0.00029445	774.87	1.471e-06	5.1838e-06	1074.7	207.83	4.1246e-06	3.9401e-06	365.62	118.27	62.301	24.834	2.7175e-06	57.529	0.0011483	0.001167	0.00032192	787.85	1.2698e-05	1.2577e-05	1063.2	214.48	1.2459e-05	1.25e-05	370.9	122.95	67.369	27.103	1.2052e-05	58.127	42.592	-108.679	228.158	-108.895	189.631	-74.238	-109.377	-103.794	237.648	-54.312	-104.564	-99.562	-98.480	-93.013	44.496	-94.425	-8191	255	
850.909	1	1	0	0	0.22077	0.13504	0.25616	0.33242	0.13822	0.13334	0.35093	0.047293	0.27608	0.16949	0.30486	0.09615	0.10911	0.14696	0.12459	0.11944	-2.6146	-2.5208	-2.8083	-3.125	-2.5417	-2.9646	-2.8875	-2.5979	-3.0854	-2.6625	-2.9104	-3.1771	-2.4646	-2.9729	-2.8	-2.7	172.961	-54.685	13.739	191.478	153.564	54.066	141.708	207.427	-62.249	149.952	143.964	178.646	167.122	154.897	82.110	164.700	0.0019179	0.0003328	0.00030258	758.14	1.3837e-05	9.5337e-06	1047.7	205.57	1.1352e-05	1.3041e-05	364.14	118.98	60.964	24.671	5.5525e-06	57.794	0.0010871	0.0010969	0.00030454	767.64	1.195e-05	1.1911e-05	1031.4	211.39	1.1819e-05	1.1865e-05	370.08	122.7	66.407	26.596	1.1591e-05	58.273	52.065	158.434	-15.956	-108.744	-18.060	68.503	-109.158	-103.118	60.042	73.980	-104.093	-99.449	-98.277	-92.233	135.248	-94.494	-8191	255	
851.029	1	1	0	0	0.17747	0.060193	0.096558	0.24275	0.24701	0.15804	0.15205	0.02733	0.075017	0.097457	0.098247	0.099276	0.07637	0.16505	0.2593	0.43642	-2.6042	-2.6958	-2.75	-3.0187	-2.5104	-2.9979	-2.9875	-2.6979	-3.0833	-2.7896	-2.8771	-3.0104	-2.6562	-2.9729	-2.8187	-2.7438	99.032	198.884	26.153	-84.930	-60.893	110.958	136.675	140.837	-65.321	-29.798	-118.665	-101.833	75.604	46.477	195.936	167.251	0.0018509	0.00062915	0.00047295	746.78	1.485e-05	1.1842e-05	1046.9	202.48	1.3298e-05	6.1081e-06	359.91	114.95	59.795	23.698	4.2606e-06	55.137	0.0010473	0.0010694	0.00029529	756.99	1.1657e-05	1.173e-05	1028.3	209.12	1.1863e-05	1.1893e-05	363.77	120.01	64.928	25.851	1.1782e-05	55.781	35.176	-69.173	31.535	-109.179	-98.746	206.221	-109.690	-104.240	-45.857	205.812	-104.391	-99.737	-98.408	-92.217	181.259	-94.024	-8191	255	
851.101	1	1	0	0	0.091573	0.12832	0.055945	0.3724	0.19867	0.24857	0.20555	0.065216	0.32776	0.31212	0.18909	0.13347	0.05413	0.12709	0.24083	0.30757	-2.6146	-2.625	-2.8312	-3.1104	-2.625	-2.8125	-3.1188	-2.7146	-3.0146	-2.6979	-2.6625	-3.0438	-2.8229	-2.7917	-2.9083	-2.6708	-90.866	181.323	-95.188	-120.057	134.843	220.498	187.877	-68.139	56.547	5.949	200.961	-16.431	111.207	96.552	203.191	104.407	0.0013116	0.00074359	0.00045096	737.33	1.1783e-05	1.2873e-05	1030.9	195.68	1.4858e-05	1.248e-05	346.83	110.9	57.979	22.652	1.0573e-05	53.606	0.0010652	0.0010726	0.00029736	747.67	1.1714e-05	1.1804e-05	1016.3	202	1.1809e-05	1.1866e-05	353.39	116.42	63.418	24.977	1.2121e-05	54.391	68.533	31.811	0.817	-109.842	-96.662	97.101	-110.288	-104.391	30.996	72.479	-104.865	-100.054	-98.415	-92.950	55.672	-95.064	-8191	255	
851.197	1	1	0	0	0.034605	0.19774	0.12518	0.34678	0.23686	0.28522	0.22923	0.24801	0.24631	0.095484	0.10469	0.15482	0.18377	0.14409	0.093978	0.1599	-2.4437	-2.7771	-2.8125	-3.1833	-2.8042	-2.8396	-3.0833	-2.6875	-2.9375	-2.8958	-2.6104	-3.1146	-2.8167	-2.8667	-2.925	-2.7687	137.666	-26.722	77.027	223.036	200.896	135.098	158.221	220.018	220.463	206.372	218.053	-9.642	170.202	224.592	179.242	144.247	0.00055978	0.00099635	0.000131	746.96	1.604e-05	1.4606e-05	1045.8	196.42	1.1874e-05	1.3972e-05	342.6	108.53	57.243	22.364	1.259e-05	52.496	0.00109	0.0011203	0.00031332	761.54	1.2318e-05	1.2435e-05	1038.4	205.36	1.2433e-05	1.2446e-05	352.69	115.59	63.552	25.066	1.2562e-05	53.805	-20.447	-80.105	-77.347	-109.070	-87.927	27.270	-110.002	-104.183	-66.190	44.961	-104.867	-99.756	-98.947	-93.282	-16.684	-94.844	-8191	255	
851.293	1	1	0	0	0.14204	0.16617	0.1492	0.14403	0.23824	0.15706	0.29237	0.24378	0.045761	0.27503	0.14949	0.16666	0.34171	0.17718	0.16955	0.052492	-2.4833	-2.875	-2.7687	-3.1354	-2.7667	-2.825	-3.2083	-2.7167	-2.9417	-2.9833	-2.6167	-3.075	-2.7104	-2.7938	-3.0062	-2.7146	-114.549	70.879	-15.717	50.644	140.509	59.136	114.300	57.233	36.434	119.867	39.820	108.396	149.834	112.246	107.553	199.036	0.0011701	0.0009694	9.5972e-05	749.61	3.9245e-06	6.6391e-06	1047.9	196.71	7.114e-06	1.0452e-05	343.9	109.7	58.39	23.01	1.0066e-05	53.361	0.0011422	0.0011543	0.00032091	764.08	1.2592e-05	1.2638e-05	1039.8	205.58	1.2576e-05	1.2542e-05	354.95	116.1	64.047	25.481	1.2366e-05	54.522	77.418	10.050	0.974	-109.256	-39.665	-51.478	-110.131	-104.028	144.721	-108.240	-104.587	-100.698	-98.825	-92.960	72.988	-94.577	-8191	255	
851.414	1	1	0	0	0.073008	0.12748	0.055792	0.07414	0.11779	0.17062	0.20256	0.20343	0.12742	0.1127	0.19392	0.31422	0.11493	0.20478	0.21168	0.18737	-2.3479	-2.9146	-2.4917	-3.2417	-2.8292	-2.7417	-3.1708	-2.6521	-2.8438	-2.9	-2.5521	-3.1146	-2.8083	-2.7042	-3.1021	-2.75	32.138	-79.105	113.873	-5.872	-115.555	-80.123	142.498	150.458	-24.483	27.865	-104.785	-122.144	202.874	176.033	80.268	204.567	0.0012267	0.00078057	7.8186e-05	754.97	3.2191e-06	7.4551e-06	1043.8	196.56	1.5578e-05	9.7698e-06	344.82	111.36	57.993	22.782	6.6059e-06	52.833	0.0011066	0.0011245	0.00031215	764.11	1.224e-05	1.2256e-05	1035.5	203.91	1.2197e-05	1.2149e-05	353.16	116.44	63.638	25.136	1.2123e-05	53.956	39.613	-78.159	3.492	-109.215	165.250	184.515	-109.936	-104.354	-33.983	79.424	-104.624	-99.759	-98.546	-92.458	209.669	-94.298	-8191	255	
851.508	1	1	0	0	0.08664	0.17248	0.22999	0.081547	0.034266	0.38604	0.2361	0.16079	0.15653	0.12714	0.21104	0.22669	0.14191	0.15031	0.095969	0.19443	-2.6125	-2.975	-2.575	-3.0917	-2.8229	-2.9042	-3.1083	-2.9771	-2.7333	-2.9854	-2.6333	-3.1271	-3.0187	-2.6875	-3.2083	-2.625	79.032	96.167	-13.860	197.175	117.740	223.515	59.258	-91.421	205.080	-74.184	133.513	151.039	114.198	174.904	-51.351	163.494	0.0011431	0.00045408	0.00026523	746.27	1.604e-05	8.2315e-06	1038.8	195.44	8.6449e-06	5.3773e-06	342.6	111.31	57.476	22.931	6.597e-06	53.473	0.0010884	0.0011019	0.0003043	756.57	1.1938e-05	1.182e-05	1023.7	202.45	1.1889e-05	1.1819e-05	352.94	116.07	63.133	24.922	1.1728e-05	54.054	30.445	95.574	-121.870	-109.157	-42.891	-81.845	-110.114	-104.064	-36.906	116.721	-104.263	-99.294	-98.559	-92.482	218.437	-94.655	-8191	255	
851.604	1	1	0	0	0.30082	0.093687	0.18697	0.17215	0.082033	0.17334	0.29393	0.13768	0.11023	0.15662	0.26447	0.1957	0.099589	0.27448	0.17289	0.38686	-2.4813	-2.9417	-2.6375	-3.2375	-2.9833	-2.6729	-3.1	-2.8104	-2.7062	-2.9833	-2.6396	-3.0479	-3.0083	-2.7979	-3.0125	-2.8812	109.611	-29.080	-98.632	182.241	219.863	236.733	-109.344	101.347	146.828	8.861	-100.170	18.135	194.719	160.228	48.573	200.194	0.00077351	0.00087625	0.00025924	738.17	8.3987e-06	7.4304e-06	1028	195.42	3.5839e-06	1.7415e-06	346.53	112.12	57.7	22.591	8.4946e-06	52.82	0.0010616	0.0010634	0.00029649	747.97	1.1674e-05	1.166e-05	1012.3	201.26	1.1485e-05	1.1607e-05	353.02	116.19	62.898	24.753	1.1429e-05	53.864	39.223	73.317	141.340	-108.962	-45.028	-13.633	-109.872	-103.590	-46.128	202.024	-104.818	-99.719	-99.377	-93.275	-58.615	-94.928	-8191	255	
851.702	1	1	0	0	0.2441	0.16407	0.2176	0.14613	0.16088	0.083608	0.12774	0.23034	0.044741	0.039401	0.16622	0.32728	0.10818	0.084438	0.1779	0.1462	-2.3146	-2.9562	-2.6375	-2.9396	-2.9979	-2.6146	-3.1437	-2.8625	-2.7146	-3.3333	-2.6688	-3.0125	-3.0042	-2.5333	-3.1771	-3.0187	93.287	39.833	144.841	134.961	193.234	-65.392	113.044	234.842	14.151	25.067	84.014	226.025	123.093	132.445	-77.531	119.332	0.0011693	0.00096998	0.00025909	728.9	5.5341e-06	1.2092e-05	1013.5	192.68	1.4537e-05	2.1244e-05	343.26	110.47	57.277	22.388	1.0652e-05	52.4	0.001039	0.0010432	0.00028963	737.42	1.14e-05	1.1508e-05	999.82	198.98	1.1328e-05	1.1395e-05	348.45	114.81	62.371	24.543	1.1189e-05	53.152	86.943	105.526	-107.146	-109.638	-16.701	110.836	-110.229	-104.159	215.742	126.072	-104.686	-99.457	-98.623	-92.383	211.851	-94.646	-8191	255	
851.797	1	1	0	0	0.080613	0.24566	0.16473	0.18269	0.17138	0.11048	0.19783	0.14855	0.18007	0.19257	0.33161	0.18649	0.34078	0.27412	0.22848	0.13018	-2.1375	-3.0167	-2.55	-2.9688	-3.0542	-2.8667	-3.0771	-2.8688	-2.5417	-3.2042	-2.7979	-2.7854	-2.975	-2.6583	-3.0208	-3.0187	237.021	17.708	-82.048	130.673	156.111	-87.444	-102.445	159.697	97.535	88.569	207.207	-96.913	181.992	211.103	38.830	134.756	0.00098163	0.00046821	0.00036251	722.23	9.2976e-06	4.4013e-06	991.07	191.21	1.0418e-05	9.8011e-06	336.84	108.58	56.776	21.882	8.4036e-06	51.349	0.0010231	0.0010269	0.0002833	728.81	1.102e-05	1.1082e-05	978.89	196.74	1.1035e-05	1.1146e-05	344.76	113.04	61.577	23.99	1.1276e-05	52.037	51.782	31.598	-66.305	-108.807	7.371	144.113	-109.884	-103.377	205.874	69.995	-104.341	-99.553	-98.619	-92.844	26.867	-94.281	-8191	255	
851.893	1	1	0	0	0.15807	0.14425	0.27386	0.28636	0.24571	0.14843	0.18718	0.14287	0.099539	0.06081	0.25109	0.24059	0.17982	0.22963	0.22736	0.13497	-2.1583	-3.075	-2.8167	-2.9667	-3.0354	-2.6917	-3.0833	-3.0563	-2.5667	-2.9542	-2.8396	-2.9104	-3.1396	-2.7188	-2.9271	-3.1625	-1.546	50.662	-42.200	178.246	154.162	-41.019	201.540	155.723	169.318	52.321	-89.227	186.538	-84.904	-108.568	139.567	-104.762	0.0001799	0.00071764	0.00024676	711.74	7.7851e-06	1.954e-06	992.93	187.13	1.8846e-05	2.7821e-06	334	106.83	55.226	21.588	6.8801e-06	50.234	0.0010198	0.001033	0.00028776	722.45	1.1269e-05	1.124e-05	982.56	193.74	1.1297e-05	1.1305e-05	339.85	111.55	60.812	23.787	1.1577e-05	51.329	4.197	3.015	-104.237	-108.753	72.680	-5.786	-109.616	-103.372	-38.661	161.617	-104.380	-99.502	-98.612	-92.433	-6.480	-94.264	-8191	255	
852.013	1	1	0	0	0.15335	0.072764	0.32508	0.37473	0.066288	0.084305	0.16719	0.09557	0.090928	0.097641	0.27483	0.19586	0.16549	0.32667	0.24495	0.22931	-2.1375	-3.0521	-2.8812	-2.8667	-3.1188	-2.5167	-2.9479	-3.0875	-2.6729	-2.9896	-2.7958	-2.8	-3.1729	-2.5312	-2.8187	-3.1542	33.901	-24.250	186.442	238.261	-29.457	22.954	238.238	108.299	235.891	36.181	182.885	-40.117	-76.782	-86.976	57.769	238.182	0.00047888	0.0004022	0.00027926	720.73	2.5262e-06	2.4796e-05	1019.2	190.77	8.036e-06	8.8475e-06	338.43	109.74	56.74	22.219	1.259e-05	51.767	0.001062	0.0010653	0.00030068	731.6	1.1834e-05	1.1858e-05	1007.1	198.55	1.1922e-05	1.2075e-05	347.31	114.13	62.667	24.597	1.2229e-05	52.924	-16.222	-64.771	50.661	-108.962	235.664	29.737	-108.483	-102.760	-43.259	-39.259	-104.775	-99.830	-98.888	-93.023	108.168	-94.664	-8191	255	
852.110	1	1	0	0	0.16483	0.17213	0.2994	0.092719	0.10829	0.26333	0.32245	0.17135	0.135	0.10082	0.3598	0.275	0.21848	0.11392	0.14842	0.17728	-2.1333	-2.9896	-2.9896	-2.7083	-3.0812	-2.8479	-2.8208	-2.9979	-2.6146	-2.9521	-2.9979	-2.6979	-3.1271	-2.8396	-2.6583	-3.2562	146.820	-94.322	-113.542	220.546	-20.000	-75.669	224.087	109.745	63.764	195.473	-91.090	171.842	220.278	169.793	237.145	130.980	0.00075824	0.0001725	0.00012413	729.52	5.0837e-06	5.1511e-06	1038.1	194.21	9.0759e-06	9.5068e-06	339.3	106.86	56.767	21.925	4.4123e-06	50.877	0.0011019	0.0011228	0.00031389	746.93	1.244e-05	1.2626e-05	1028.7	203.66	1.2684e-05	1.2798e-05	350.33	114.33	63.114	24.699	1.2947e-05	52.631	30.050	-31.914	-67.725	-109.047	-64.945	34.761	-110.005	-104.190	150.710	-2.509	-104.518	-99.594	-98.735	-93.368	145.448	-94.576	-8191	255	
852.206	1	1	0	0	0.15701	0.14078	0.18013	0.26484	0.16357	0.20715	0.27647	0.084077	0.24394	0.14105	0.20751	0.29726	0.088455	0.057119	0.20923	0.21149	-2.3479	-2.9333	-2.8604	-2.6188	-3.0667	-2.8563	-2.7646	-2.8833	-2.6042	-2.8833	-3.1	-2.7833	-3.0854	-2.6104	-2.6917	-3.2167	27.698	-24.678	-27.982	144.205	106.181	-79.054	202.433	39.773	31.039	193.993	158.850	185.233	188.437	-93.114	-50.725	142.916	0.00061868	0.0013388	0.00036731	727.75	2.0189e-05	5.1258e-06	1042.8	196.22	1.9107e-05	7.4776e-06	335.15	105	55.866	21.621	6.9944e-06	49.695	0.0011789	0.0011935	0.00033265	750.54	1.3036e-05	1.323e-05	1034.7	206.52	1.3086e-05	1.3208e-05	350.37	112.97	62.74	24.484	1.3302e-05	51.817	71.973	-66.974	21.270	-108.588	-87.241	-96.346	-109.270	-104.202	-80.815	-111.704	-104.696	-99.302	-99.029	-92.939	112.649	-94.359	-8191	255	
852.302	1	1	0	0	0.12903	0.2718	0.12966	0.19092	0.26784	0.48409	0.098168	0.37828	0.13662	0.23981	0.24814	0.15146	0.1753	0.15391	0.12451	0.35162	-2.0708	-3.05	-3.1625	-2.5833	-3.0438	-2.9333	-2.8833	-3.2687	-2.7542	-2.8875	-3.0917	-2.5646	-3.0354	-3.0604	-2.7958	-3.1771	-78.546	220.268	144.559	19.086	70.746	120.775	92.148	233.235	213.845	227.215	116.024	195.955	-8.924	-101.246	-12.781	163.239	0.00049424	0.00022128	0.0001895	741.08	2.7325e-06	8.1144e-06	1048.1	201	2.1947e-05	1.9861e-05	336.51	105.03	55.902	21.394	7.6222e-06	49.543	0.0012141	0.0012301	0.00034284	759.91	1.3501e-05	1.369e-05	1045.6	211.56	1.3674e-05	1.3733e-05	353.56	113.57	63.338	24.625	1.3673e-05	51.604	38.092	-40.957	218.349	-108.758	234.580	-11.878	-109.198	-104.164	9.653	-70.432	-104.627	-99.579	-98.643	-92.294	-77.991	-93.350	-8191	255	
852.398	1	1	0	0	0.17777	0.27651	0.12359	0.12178	0.14461	0.071173	0.18215	0.28845	0.12702	0.030962	0.27863	0.26775	0.07266	0.19451	0.044531	0.23754	-2.3542	-2.6896	-3.0646	-2.5604	-2.9167	-3.0563	-2.8271	-3.0583	-2.7042	-2.8104	-3.2188	-2.8083	-3.0229	-2.9188	-2.7292	-3.2396	171.566	230.450	-63.121	-99.601	47.486	-85.793	229.334	119.158	2.153	46.437	-89.754	-69.437	-111.860	-54.214	-46.429	236.603	0.0008648	0.0014907	7.5806e-05	730.9	6.4081e-06	1.2132e-05	1039	201.37	8.3701e-06	2.2666e-05	337.34	103.54	56.397	21.456	1.8821e-05	49.274	0.0012437	0.0012545	0.00034947	755.37	1.3728e-05	1.3741e-05	1041.7	211.4	1.37e-05	1.3751e-05	352.77	113.37	63.617	24.648	1.3799e-05	51.703	-24.727	237.268	31.278	-108.777	78.654	17.404	-109.584	-104.002	-29.368	28.930	-105.301	-99.517	-98.822	-93.058	29.641	-94.190	-8191	255	
#DATA ENDS
