BOXY.EXE: ISS Imagent and Oximeter Data Acquisition Program Version 0.80
Ascii Record File

#ACQ INFORMATION
2  Detector Channels 
16  External MUX Channels 
1  Auxiliary Channels 
5000  Waveform (CCF) Frequency (Hz)
1  Waveforms Skipped 
30  Waveforms Averaged 
1  Cycles Averaged 
16  Acquisitions per Waveform 
10.0806  Updata Rate (Hz) 

#FILE INFORMATION
TRUE -- External MUX Channel results are PARSED.
FALSE -- AC DC and Phase are NOT grouped.
TRUE -- Companion Program Settings File CREATED.
FALSE -- AC data not excluded
FALSE -- DC data not excluded
FALSE -- Phase data not excluded
FALSE -- Auxillary Chn. data not excluded
Tab delimiters

#CALIBRATION STATE
TRUE -- Waveform Calibration Values APPLIED.


#AUX CALIBRATION VALUES
Val Type	aux-1	

Term	1.0000e+00	
Factor	0.0000e+00	


#WF CALIBRATION VALUES
A = Detector Channel
Val Type	A-AC1	A-AC2	A-AC3	A-AC4	A-AC5	A-AC6	A-AC7	A-AC8	A-AC9	A-AC10	A-AC11	A-AC12	A-AC13	A-AC14	A-AC15	A-AC16	A-DC1	A-DC2	A-DC3	A-DC4	A-DC5	A-DC6	A-DC7	A-DC8	A-DC9	A-DC10	A-DC11	A-DC12	A-DC13	A-DC14	A-DC15	A-DC16	A-Ph1	A-Ph2	A-Ph3	A-Ph4	A-Ph5	A-Ph6	A-Ph7	A-Ph8	A-Ph9	A-Ph10	A-Ph11	A-Ph12	A-Ph13	A-Ph14	A-Ph15	A-Ph16	

Term	0.00000e+00	0.00000e+00	0.00000e+00	0.00000e+00	0.00000e+00	0.00000e+00	0.00000e+00	0.00000e+00	0.00000e+00	0.00000e+00	0.00000e+00	0.00000e+00	0.00000e+00	0.00000e+00	0.00000e+00	0.00000e+00	0.00000e+00	0.00000e+00	0.00000e+00	0.00000e+00	0.00000e+00	0.00000e+00	0.00000e+00	0.00000e+00	0.00000e+00	0.00000e+00	0.00000e+00	0.00000e+00	0.00000e+00	0.00000e+00	0.00000e+00	0.00000e+00	0.00000e+00	0.00000e+00	0.00000e+00	0.00000e+00	0.00000e+00	0.00000e+00	0.00000e+00	0.00000e+00	0.00000e+00	0.00000e+00	0.00000e+00	0.00000e+00	0.00000e+00	0.00000e+00	0.00000e+00	0.00000e+00	
Factor	1.00000e+00	1.00000e+00	1.00000e+00	1.00000e+00	1.00000e+00	1.00000e+00	1.00000e+00	1.00000e+00	1.00000e+00	1.00000e+00	1.00000e+00	1.00000e+00	1.00000e+00	1.00000e+00	1.00000e+00	1.00000e+00	1.00000e+00	1.00000e+00	1.00000e+00	1.00000e+00	1.00000e+00	1.00000e+00	1.00000e+00	1.00000e+00	1.00000e+00	1.00000e+00	1.00000e+00	1.00000e+00	1.00000e+00	1.00000e+00	1.00000e+00	1.00000e+00	X	X	X	X	X	X	X	X	X	X	X	X	X	X	X	X	

B = Detector Channel
Val Type	B-AC1	B-AC2	B-AC3	B-AC4	B-AC5	B-AC6	B-AC7	B-AC8	B-AC9	B-AC10	B-AC11	B-AC12	B-AC13	B-AC14	B-AC15	B-AC16	B-DC1	B-DC2	B-DC3	B-DC4	B-DC5	B-DC6	B-DC7	B-DC8	B-DC9	B-DC10	B-DC11	B-DC12	B-DC13	B-DC14	B-DC15	B-DC16	B-Ph1	B-Ph2	B-Ph3	B-Ph4	B-Ph5	B-Ph6	B-Ph7	B-Ph8	B-Ph9	B-Ph10	B-Ph11	B-Ph12	B-Ph13	B-Ph14	B-Ph15	B-Ph16	

Term	0.00000e+00	0.00000e+00	0.00000e+00	0.00000e+00	0.00000e+00	0.00000e+00	0.00000e+00	0.00000e+00	0.00000e+00	0.00000e+00	0.00000e+00	0.00000e+00	0.00000e+00	0.00000e+00	0.00000e+00	0.00000e+00	0.00000e+00	0.00000e+00	0.00000e+00	0.00000e+00	0.00000e+00	0.00000e+00	0.00000e+00	0.00000e+00	0.00000e+00	0.00000e+00	0.00000e+00	0.00000e+00	0.00000e+00	0.00000e+00	0.00000e+00	0.00000e+00	7.91608e+01	-1.57426e+02	-1.25790e+02	-1.81071e+02	-1.33254e+02	-4.33174e+01	-1.58384e+02	-1.62015e+02	-9.85754e+01	-5.35677e+01	-1.74335e+02	-1.74194e+02	-1.80052e+02	-1.76373e+02	-8.84111e+01	-1.49596e+02	
Factor	7.28416e-05	1.18705e-04	3.43277e-05	1.55421e-01	1.40958e-06	1.37877e-06	1.77198e-01	4.90421e-02	1.73132e-06	1.35496e-06	9.21222e-02	3.70337e-02	2.12366e-02	8.91378e-03	1.18770e-06	1.32070e-02	1.01932e-06	1.04090e-06	2.89617e-07	7.87538e-02	1.13864e-08	1.14252e-08	8.37802e-02	2.48126e-02	1.13964e-08	1.14369e-08	4.41850e-02	1.75058e-02	1.07770e-02	4.46422e-03	1.14014e-08	6.34155e-03	X	X	X	X	X	X	X	X	X	X	X	X	X	X	X	X	



#DISTANCE SETTINGS
A = Detector Channel
A-1	A-2	A-3	A-4	A-5	A-6	A-7	A-8	A-9	A-10	A-11	A-12	A-13	A-14	A-15	A-16	

2.5000e+00	3.0000e+00	2.5000e+00	3.0000e+00	2.0000e+00	3.0000e+00	1.5000e+00	3.0000e+00	3.0000e+00	3.0000e+00	3.0000e+00	3.0000e+00	3.0000e+00	3.0000e+00	1.5000e+00	3.0000e+00	

B = Detector Channel
B-1	B-2	B-3	B-4	B-5	B-6	B-7	B-8	B-9	B-10	B-11	B-12	B-13	B-14	B-15	B-16	

1.0000e+01	1.0000e+01	1.0000e+01	1.4400e+00	1.0000e+01	1.0000e+01	1.5100e+00	1.9400e+00	1.0000e+01	1.0000e+01	1.9900e+00	2.4900e+00	2.4100e+00	2.9000e+00	1.0000e+01	2.9800e+00	




#DATA BEGINS
time	group	step	mark	flag	A-AC1	A-AC2	A-AC3	A-AC4	A-AC5	A-AC6	A-AC7	A-AC8	A-AC9	A-AC10	A-AC11	A-AC12	A-AC13	A-AC14	A-AC15	A-AC16	A-DC1	A-DC2	A-DC3	A-DC4	A-DC5	A-DC6	A-DC7	A-DC8	A-DC9	A-DC10	A-DC11	A-DC12	A-DC13	A-DC14	A-DC15	A-DC16	A-Ph1	A-Ph2	A-Ph3	A-Ph4	A-Ph5	A-Ph6	A-Ph7	A-Ph8	A-Ph9	A-Ph10	A-Ph11	A-Ph12	A-Ph13	A-Ph14	A-Ph15	A-Ph16	B-AC1	B-AC2	B-AC3	B-AC4	B-AC5	B-AC6	B-AC7	B-AC8	B-AC9	B-AC10	B-AC11	B-AC12	B-AC13	B-AC14	B-AC15	B-AC16	B-DC1	B-DC2	B-DC3	B-DC4	B-DC5	B-DC6	B-DC7	B-DC8	B-DC9	B-DC10	B-DC11	B-DC12	B-DC13	B-DC14	B-DC15	B-DC16	B-Ph1	B-Ph2	B-Ph3	B-Ph4	B-Ph5	B-Ph6	B-Ph7	B-Ph8	B-Ph9	B-Ph10	B-Ph11	B-Ph12	B-Ph13	B-Ph14	B-Ph15	B-Ph16	aux-1	digaux	

539.363	1	1	0	256	0.28408	0.13303	0.14084	0.069548	0.29904	0.22239	0.045237	0.042454	0.21741	0.13916	0.1849	0.2976	0.20195	0.1678	0.34198	0.15642	-3.0146	-2.9375	-3.3625	-3.2521	-2.9313	-3.3	-3.1688	-3.1188	-3.4125	-3.2792	-3.1104	-3.4021	-2.9521	-3.3708	-3.0167	-3.1208	254.839	39.623	334.331	260.506	46.260	296.142	176.409	230.864	254.747	132.622	228.287	306.892	-0.453	240.169	153.059	336.154	0.00056061	0.00054379	0.00010533	1295.2	1.0128e-05	3.375e-06	1372.7	276.4	5.6232e-06	5.9169e-06	335.56	93.119	75.668	22.167	1.8839e-06	29.49	0.00036905	0.0003661	0.00010295	1269.1	3.9928e-06	3.9687e-06	1343.2	274.27	3.8875e-06	3.8934e-06	333.39	93.87	76.371	22.825	3.8715e-06	30.417	-0.244	20.122	91.305	-7.660	54.941	169.640	-7.654	-0.530	139.112	141.105	-0.787	6.050	6.411	13.122	186.259	12.738	-8191	255	
539.459	1	1	0	0	0.21582	0.21414	0.084109	0.14009	0.2512	0.40302	0.16783	0.071137	0.087391	0.20271	0.50222	0.37761	0.13728	0.27866	0.019149	0.059431	-2.9042	-2.9375	-3.0396	-3.5125	-2.9688	-3.2896	-3.3271	-3.2042	-3.3125	-3.0708	-3.3021	-3.3896	-2.9917	-3.2083	-3.3042	-3.0438	138.057	35.687	204.211	246.978	15.719	147.498	15.666	333.430	300.766	123.174	2.346	-2.626	39.383	-8.018	59.582	80.474	0.00084073	0.00051638	0.00012437	1294.8	2.9612e-06	1.8787e-06	1367.2	275.02	3.3192e-06	5.278e-06	337.98	93.587	75.357	22.132	6.7369e-06	29.663	0.00035162	0.00035291	9.9593e-05	1270.8	3.8817e-06	3.8948e-06	1342.8	274.01	3.9567e-06	3.9324e-06	334.56	94.258	76.436	22.88	4.0321e-06	30.614	2.531	93.487	34.932	-7.600	202.528	243.920	-7.607	-0.528	94.323	99.079	-0.533	6.160	6.430	12.864	106.462	12.499	-8191	255	
539.579	1	1	0	0	0.16298	0.18666	0.20167	0.12108	0.42146	0.19785	0.17949	0.2204	0.016643	0.078302	0.10605	0.26822	0.10958	0.36326	0.18659	0.15846	-3.0521	-2.9562	-3.0417	-3.4062	-2.7333	-3.3625	-3.3875	-3.1417	-3.2167	-3.0417	-3.1375	-3.2604	-3.0708	-3.2292	-3.0771	-3.0042	202.701	291.524	33.280	298.223	-14.556	290.584	-8.626	7.515	207.235	173.973	167.983	289.975	329.439	332.617	55.093	250.614	0.0006338	0.00062986	0.00018364	1289.6	4.4858e-06	2.5813e-06	1371	275.9	4.7855e-06	1.2134e-06	336.58	93.617	75.652	22.089	4.6437e-06	29.831	0.00037101	0.00036977	0.00010391	1271.4	4.1039e-06	4.1081e-06	1344.2	274.74	4.1419e-06	4.1073e-06	334.38	94.368	76.563	22.962	4.0669e-06	30.651	-17.931	91.480	100.622	-7.594	81.411	27.881	-7.730	-0.678	62.079	323.728	-0.758	6.204	6.326	12.837	318.738	12.517	-8191	255	
539.676	1	1	0	0	0.092917	0.092209	0.11405	0.25384	0.080117	0.095995	0.10562	0.18834	0.12299	0.10541	0.14486	0.2526	0.12097	0.24336	0.18742	0.18759	-2.8688	-3.025	-2.8458	-3.5062	-2.9542	-3.1854	-3.6542	-2.9333	-3.1271	-3.1	-3.0521	-3.4167	-2.9333	-3.2	-3.2958	-3.0375	129.363	282.859	249.506	333.328	-6.453	300.808	253.809	291.541	90.296	141.797	329.456	320.269	-17.822	337.670	323.331	92.881	0.00059835	0.00026808	3.4019e-05	1296.8	6.9294e-06	6.4691e-06	1372.9	276.68	4.5117e-06	5.1162e-06	338.47	93.792	76.179	22.235	5.9024e-06	29.497	0.00037631	0.00037671	0.00010325	1273.8	4.1282e-06	4.0677e-06	1347	275.04	4.0752e-06	4.0956e-06	334.97	94.584	76.639	22.949	4.1542e-06	30.638	11.531	12.527	238.899	-7.709	99.511	118.732	-7.784	-0.572	57.969	174.738	-0.768	6.532	6.486	13.220	60.047	12.500	-8191	255	
539.747	1	1	0	0	0.10354	0.0099536	0.079392	0.17329	0.12323	0.092822	0.21384	0.18841	0.1917	0.199	0.061001	0.038425	0.20369	0.077395	0.2958	0.16307	-2.8771	-2.9188	-2.7833	-3.5354	-3.0625	-3.0583	-3.5104	-3.0833	-3.1312	-3.2125	-3.1146	-3.2812	-3.05	-2.9854	-3.2521	-2.8958	165.859	269.687	147.713	313.572	34.332	201.468	331.174	320.345	198.910	324.643	92.047	283.813	304.086	-16.339	-6.877	205.650	0.00072	0.00054839	0.00011213	1293.8	2.9196e-06	9.1145e-06	1373.2	275.01	9.7622e-06	6.9289e-06	338.34	93.055	75.849	22.223	2.2441e-06	29.543	0.0003799	0.00038211	0.00010656	1273.4	4.2916e-06	4.2721e-06	1349.4	275.07	4.3477e-06	4.3482e-06	336.51	94.805	76.897	23.088	4.4302e-06	30.759	-12.528	-0.092	20.776	-7.760	81.362	130.586	-7.614	-0.612	152.037	211.781	-0.510	5.941	6.480	12.778	88.225	12.697	-8191	255	
539.843	1	1	0	0	0.058464	0.30862	0.21103	0.18016	0.19173	0.28578	0.18297	0.047028	0.2969	0.13015	0.2003	0.14188	0.2032	0.28639	0.13773	0.083993	-2.675	-3.1333	-2.7188	-3.4896	-3.1521	-2.95	-3.6063	-3.0521	-3.175	-3.3021	-3.0667	-3.3042	-3.15	-3	-3.3167	-3.0687	50.526	305.967	10.884	292.053	203.860	262.697	286.985	272.357	118.256	143.645	256.372	307.080	-16.542	307.053	203.596	273.011	0.00089012	0.00059802	0.00028276	1297.3	5.418e-06	3.5773e-06	1370.9	275.42	8.2788e-06	5.9311e-06	337.98	93.731	75.766	22.229	4.6264e-06	29.773	0.00040379	0.00040426	0.00011409	1276.9	4.5091e-06	4.4849e-06	1351.1	275.76	4.6195e-06	4.6251e-06	338.52	95.477	77.281	23.181	4.6251e-06	31.039	336.212	95.829	53.509	-7.660	-4.718	45.274	-7.681	-0.613	212.570	317.384	-1.054	6.099	6.504	13.036	93.299	12.492	-8191	255	
539.964	1	1	0	0	0.041647	0.13012	0.18025	0.41911	0.3033	0.14683	0.32811	0.28808	0.069653	0.15573	0.081595	0.30718	0.17093	0.30881	0.19903	0.1636	-2.6083	-3.5229	-2.9104	-3.4083	-3.1208	-3.0229	-3.7125	-3.1375	-3.1	-3.3958	-2.9021	-3.3688	-3.2687	-2.9542	-3.2833	-3.1792	47.529	331.261	318.042	297.232	-5.117	19.971	308.495	302.990	200.248	218.728	260.729	179.042	289.124	255.222	207.818	157.085	0.00069473	0.00060911	4.28e-05	1294.4	5.0614e-06	3.8854e-06	1371.5	276.26	6.1923e-06	4.4777e-06	337.51	93.322	75.394	22.354	6.0712e-06	29.539	0.00042412	0.00042595	0.00011946	1276.9	4.6469e-06	4.5836e-06	1351.4	276.53	4.5537e-06	4.4973e-06	337.3	95.157	76.999	23.224	4.4776e-06	30.909	339.774	129.315	181.581	-7.833	340.961	74.259	-7.557	-0.687	64.754	143.640	-0.811	5.787	6.445	12.945	307.092	12.389	-8191	255	
540.060	1	1	0	0	0.06925	0.16197	0.11521	0.21543	0.064	0.074535	0.19728	0.19361	0.18324	0.16052	0.17023	0.22308	0.18952	0.19316	0.23516	0.040294	-2.6875	-3.2396	-2.8979	-3.1562	-3.2021	-3.0438	-3.5083	-3.1583	-2.925	-3.2833	-2.9604	-3.1958	-3.2	-2.8	-3.4167	-3.2604	186.761	220.780	15.441	0.779	36.305	140.825	307.414	278.577	158.038	-0.742	194.344	265.703	11.087	18.799	36.820	138.429	0.00048094	0.00031034	0.00018534	1297.5	1.3573e-06	2.2437e-06	1369.6	276.17	4.1251e-06	4.0447e-06	335.78	93.56	75.818	22.081	4.5249e-06	29.327	0.00041281	0.00041231	0.00011668	1279.3	4.6045e-06	4.5939e-06	1350.5	276.4	4.6643e-06	4.6661e-06	337.32	95.525	77.37	23.204	4.7071e-06	30.949	335.139	203.138	14.271	-7.815	59.999	114.998	-7.808	-0.599	138.137	191.362	-0.691	6.069	6.499	13.083	84.005	12.275	-8191	255	
540.156	1	1	0	0	0.1008	0.25723	0.08766	0.21752	0.04995	0.32562	0.33732	0.063803	0.20599	0.1313	0.16481	0.07773	0.32013	0.056897	0.28222	0.16972	-2.2958	-3.2708	-2.6813	-3.3125	-3.2917	-2.7875	-3.5542	-3.0854	-2.9146	-3.4167	-3	-3.1625	-3.2479	-3.0167	-3.1083	-3.2708	20.771	65.044	261.301	311.614	133.744	95.233	237.424	54.293	320.867	96.348	299.060	331.980	262.857	200.266	51.379	264.134	0.00059278	0.00067991	0.00012012	1292.9	4.3087e-06	7.66e-06	1377.9	276.62	6.7629e-06	1.5909e-06	337.41	94.21	75.588	22.182	3.9212e-06	29.691	0.00042946	0.00043056	0.00012055	1277.9	4.711e-06	4.7662e-06	1352.9	276.1	4.6896e-06	4.7069e-06	337.02	95.612	77.324	23.247	4.7432e-06	31.04	-10.519	76.561	262.688	-7.818	-12.007	142.056	-7.880	-0.597	336.021	35.733	-0.651	6.353	6.278	13.037	112.409	12.460	-8191	255	
540.252	1	1	0	0	0.05562	0.18997	0.18914	0.21146	0.062083	0.18986	0.12991	0.1183	0.12251	0.15719	0.17326	0.14432	0.11592	0.06544	0.046507	0.12444	-2.3542	-3.3917	-2.9229	-3.2	-3.2875	-2.825	-3.4354	-3.3583	-2.8458	-3.5021	-2.9854	-3.0771	-3.4458	-2.9813	-3.2958	-3.3396	332.490	71.540	103.238	319.607	181.107	179.690	281.183	331.198	-17.437	6.805	269.700	76.200	28.991	0.657	86.098	321.868	0.00048111	0.00019438	0.00016394	1296.2	5.8485e-06	4.9237e-06	1375.9	275.06	7.8744e-06	7.1365e-06	337.82	93.706	75.912	22.278	3.5418e-06	29.872	0.00043542	0.00043853	0.00012199	1280.5	4.7726e-06	4.8339e-06	1352.6	276.52	4.9116e-06	4.993e-06	339.21	95.929	77.77	23.428	5.1022e-06	31.284	306.979	-10.178	68.027	-7.839	148.180	142.284	-7.839	-0.459	91.111	147.839	-0.791	6.071	6.187	13.166	82.285	12.248	-8191	255	
540.347	1	1	0	0	0.12357	0.1058	0.15822	0.18735	0.11678	0.11656	0.11181	0.005525	0.34233	0.022603	0.11451	0.036947	0.34706	0.28055	0.077789	0.3649	-2.5583	-3.2271	-3.125	-3.1042	-3.3042	-2.9437	-3.3063	-3.3396	-2.6479	-3.3563	-3.1479	-2.9688	-3.5083	-2.9979	-3.2125	-3.4833	217.562	338.164	194.772	256.482	30.721	128.742	318.909	257.467	271.618	48.606	274.085	233.524	298.502	-1.784	339.768	258.672	0.00060041	0.00052649	0.00013943	1294.7	8.0523e-06	6.7162e-06	1375.5	277.34	7.0867e-06	9.822e-06	336.63	93.901	76.358	22.357	3.8381e-06	29.764	0.00046155	0.00046595	0.00012835	1281.3	5.1184e-06	5.1738e-06	1355.8	278.01	5.1389e-06	5.1904e-06	339.08	96.164	77.832	23.442	5.0595e-06	31.281	326.174	-17.215	87.390	-7.854	117.123	176.691	-7.857	-0.424	69.923	174.459	-0.680	5.477	6.228	12.746	12.312	12.464	-8191	255	
540.443	1	1	0	0	0.28269	0.18162	0.022037	0.32638	0.17219	0.092752	0.41545	0.13656	0.22854	0.22519	0.10872	0.20061	0.12174	0.21138	0.20981	0.088858	-2.4875	-3.3187	-3.0833	-3.2146	-3.3667	-3.0833	-3.2458	-3.6875	-2.8896	-3.4146	-3.2938	-3.1042	-3.3375	-2.8979	-3.0354	-3.4062	212.040	230.396	242.588	340.727	4.422	223.937	282.676	305.400	258.045	123.861	220.435	64.833	166.694	286.018	37.313	292.238	0.00050694	0.0002014	0.00012094	1290.5	1.9553e-06	7.3709e-07	1373.8	276.38	2.0964e-06	7.9656e-06	337.61	94.011	75.865	22.261	4.007e-06	29.828	0.00045196	0.00046127	0.0001269	1280.6	5.0197e-06	5.0137e-06	1353.9	277.34	5.0418e-06	5.1218e-06	339.23	96.529	77.809	23.504	5.2608e-06	31.415	4.883	32.317	260.768	-7.809	183.146	212.877	-7.712	-0.519	234.636	97.933	-0.741	6.226	6.296	12.890	195.795	12.134	-8191	255	
540.564	1	1	0	0	0.06944	0.28056	0.29101	0.18515	0.17789	0.080461	0.36377	0.24257	0.098212	0.21666	0.20026	0.28474	0.11767	0.108	0.11802	0.24573	-2.4667	-3.3063	-3.1896	-3.1292	-3.4833	-3.1417	-3.1167	-3.4729	-2.9917	-3.2667	-3.4	-2.8937	-3.3771	-3.0229	-3.0479	-3.4062	202.633	316.291	101.536	-10.890	42.939	-15.683	268.519	279.414	102.857	194.501	264.994	336.284	108.919	195.010	137.824	341.261	0.00083164	0.00094629	0.00012798	1297.7	7.6349e-06	8.8228e-06	1375.3	274.41	5.594e-06	7.163e-07	337.7	93.988	76.121	22.154	6.2767e-07	29.72	0.00046979	0.00047051	0.00013001	1281	5.0788e-06	5.0945e-06	1354.4	276.98	5.0866e-06	5.0641e-06	339.26	96.346	77.964	23.421	5.1441e-06	31.302	325.551	33.148	197.852	-7.557	113.105	4.127	-7.652	-0.428	72.983	116.726	-0.843	5.802	6.308	13.135	204.978	12.349	-8191	255	
540.660	1	1	0	0	0.25284	0.090725	0.26674	0.23613	0.10564	0.26843	0.20307	0.28621	0.25561	0.15452	0.10604	0.15268	0.23587	0.099601	0.31048	0.16759	-2.7708	-3.1042	-3.2854	-3.1333	-3.4313	-3.2042	-3.2687	-3.5792	-3.0521	-3.1354	-3.5146	-3.0729	-3.4083	-3.2479	-2.9938	-3.5083	58.511	204.876	92.304	300.274	279.547	177.606	329.937	12.578	304.353	226.251	33.373	277.932	-15.167	133.239	166.126	123.430	0.00057394	0.00012375	0.00025903	1295.5	5.678e-06	3.395e-06	1368.8	276.99	3.788e-06	4.7684e-06	335.53	94.919	76.051	22.424	4.6993e-06	29.726	0.00046984	0.00047546	0.00013354	1281.1	5.2885e-06	5.2889e-06	1356.8	278.63	5.2354e-06	5.3007e-06	340.09	96.917	78.116	23.514	5.3333e-06	31.391	-3.821	33.588	122.014	-7.664	152.052	139.737	-7.730	-0.601	-1.087	230.509	-0.697	5.967	6.124	12.536	56.758	12.561	-8191	255	
540.756	1	1	0	0	0.15541	0.12123	0.11538	0.23641	0.060563	0.051617	0.18763	0.1214	0.40394	0.070488	0.17221	0.3442	0.0095997	0.20465	0.15683	0.25581	-2.5417	-3.1979	-3.3229	-3.2	-3.275	-3.2687	-3.0229	-3.5354	-3.225	-3.0583	-3.3958	-2.85	-3.3667	-3.0938	-2.8354	-3.4958	298.425	125.112	11.129	279.048	153.424	303.257	299.770	23.093	-15.772	62.508	306.253	-12.406	231.500	278.775	328.335	154.022	0.00059519	0.00044785	0.00020612	1293.6	5.3753e-06	8.549e-06	1370	275.67	8.5008e-06	1.0179e-05	337.65	93.731	75.818	22.428	5.7445e-06	29.83	0.00047652	0.00047491	0.00013024	1280	5.1343e-06	5.0925e-06	1352.9	277.25	5.1237e-06	5.2118e-06	339.93	96.42	78.027	23.559	5.1231e-06	31.399	14.779	298.754	-16.028	-7.626	179.708	62.559	-7.713	-0.576	49.221	202.462	-0.684	5.620	6.732	13.063	52.394	12.751	-8191	255	
540.852	1	1	0	0	0.12907	0.28469	0.13089	0.46291	0.16233	0.22023	0.26129	0.15825	0.05111	0.33282	0.16194	0.087073	0.12271	0.16175	0.27066	0.24828	-2.6271	-3.0417	-3.3708	-3.1896	-3.2917	-3.4688	-3.175	-3.4562	-3.1417	-2.9625	-3.4146	-2.9042	-3.0604	-3.3333	-2.9771	-3.5021	24.945	279.274	64.849	289.620	311.662	315.381	321.995	212.423	4.140	54.429	314.685	4.973	9.159	143.377	256.240	211.819	0.00048596	0.00050602	0.00013379	1292.6	1.1035e-05	2.1843e-06	1368.7	275.59	9.3918e-06	6.5924e-06	338.57	93.648	76.172	22.422	3.2959e-06	29.778	0.00045953	0.00046549	0.00012887	1277.6	5.0436e-06	5.1341e-06	1352	277.73	5.1781e-06	5.2687e-06	340	96.674	78.187	23.723	5.3968e-06	31.525	52.029	95.470	38.553	-7.760	112.047	115.963	-7.757	-0.427	180.089	151.926	-0.634	5.947	6.507	13.184	81.995	12.737	-8191	255	
540.973	1	1	0	0	0.043588	0.075468	0.1508	0.23643	0.11936	0.12388	0.10678	0.2773	0.077093	0.2225	0.14888	0.17376	0.12473	0.23022	0.17407	0.12454	-2.6375	-2.95	-3.4521	-3.1792	-3.05	-3.1708	-3.1167	-3.4437	-3.0896	-2.9396	-3.5229	-3.0042	-3.1021	-3.4521	-2.8688	-3.4833	310.411	199.956	142.408	320.485	179.433	189.335	312.537	288.969	125.172	316.082	273.668	281.596	267.730	31.049	4.743	145.191	0.00038723	0.00051617	7.018e-05	1296.9	3.8247e-06	5.4355e-06	1372.6	275.58	9.8841e-06	1.0581e-05	337.16	93.799	76.367	22.334	3.9379e-06	29.776	0.00049164	0.00049207	0.0001371	1280.6	5.2912e-06	5.3348e-06	1352.9	277.27	5.2186e-06	5.2135e-06	339.1	96.438	78.104	23.631	5.2579e-06	31.462	338.315	287.036	-9.418	-7.755	63.825	113.822	-7.575	-0.542	184.673	188.261	-0.796	6.170	6.303	12.709	139.950	12.340	-8191	255	
541.044	1	1	0	0	0.23957	0.12138	0.058718	0.3882	0.11573	0.25639	0.11736	0.30641	0.29819	0.27258	0.047413	0.099871	0.16458	0.13661	0.20865	0.16875	-2.8479	-2.8708	-3.4437	-3.2792	-2.9125	-3.3208	-2.8917	-3.2917	-3.2396	-2.9313	-3.5375	-3.2771	-3.0146	-3.3563	-2.9729	-3.1042	297.220	192.318	314.962	310.775	258.920	207.683	46.220	276.854	268.143	284.010	203.729	171.061	270.984	3.578	319.357	59.222	0.00079949	0.00012455	0.00018974	1291.8	3.817e-06	1.1537e-05	1367	276.42	8.8813e-06	5.079e-06	336.37	93.699	75.636	22.319	1.9777e-06	29.856	0.00048241	0.00047984	0.00013286	1278.7	5.2789e-06	5.3259e-06	1353.8	277.85	5.3182e-06	5.3154e-06	339.66	96.912	78.094	23.652	5.3808e-06	31.508	330.474	23.426	91.015	-7.841	147.305	173.027	-7.503	-0.386	173.053	241.489	-0.964	6.031	6.453	12.785	5.834	12.260	-8191	255	
541.141	1	1	0	0	0.41262	0.13646	0.17033	0.026316	0.2086	0.10162	0.39979	0.17989	0.23891	0.10042	0.068509	0.34662	0.013897	0.15101	0.065732	0.074547	-2.7979	-2.9875	-3.3104	-3.2604	-2.9562	-3.2646	-3.2125	-3.3354	-3.2708	-2.8854	-3.3417	-3.1958	-3.0583	-3.5563	-2.9458	-3.125	214.394	307.256	290.604	242.306	52.474	27.267	321.261	254.248	284.002	120.756	101.038	330.868	248.322	267.934	90.308	130.298	0.0008269	0.00039569	0.00011811	1290.7	1.038e-06	3.3941e-06	1366.9	274.63	8.0933e-06	2.2817e-06	336.54	93.547	76.074	22.455	4.6159e-06	29.908	0.00048035	0.00048226	0.00013277	1278.2	5.2873e-06	5.2713e-06	1351.9	277.52	5.2722e-06	5.3129e-06	338.85	96.449	78.086	23.577	5.1947e-06	31.463	314.348	27.607	7.972	-7.785	71.361	198.320	-7.594	-0.359	222.849	157.644	-0.835	6.374	6.370	13.031	227.748	12.269	-8191	255	
541.237	1	1	0	0	0.062494	0.21297	0.062466	0.10396	0.1448	0.18183	0.15853	0.18456	0.25018	0.11687	0.17726	0.17595	0.27153	0.17127	0.10937	0.013243	-2.9354	-2.8979	-3.1354	-3.2958	-2.8333	-3.3729	-3.3042	-3.125	-3.425	-3.0729	-3.3708	-3.4021	-2.9396	-3.3688	-3.0417	-3.2896	332.845	269.307	300.663	244.609	34.632	14.062	252.742	286.409	214.829	284.689	250.878	284.732	294.095	3.013	105.379	158.570	0.00048948	0.00032049	0.00015283	1287.3	9.4604e-06	5.0727e-06	1367.1	275.27	7.8531e-06	6.2026e-06	336.98	93.703	75.71	22.211	7.1555e-06	29.938	0.00047534	0.0004835	0.00013509	1276.7	5.3284e-06	5.3407e-06	1350.7	277.07	5.3296e-06	5.2848e-06	338.99	96.589	77.765	23.573	5.22e-06	31.542	-13.286	164.243	112.953	-7.616	42.664	175.868	-7.662	-0.530	82.662	268.096	-0.987	6.182	6.208	12.970	74.570	12.078	-8191	255	
541.356	1	1	0	0	0.19468	0.12751	0.13609	0.10006	0.48497	0.13644	0.2104	0.11709	0.17596	0.22819	0.15677	0.27605	0.081558	0.032193	0.18364	0.048784	-3.025	-3	-3.2271	-3.4562	-2.8354	-3.3333	-3.2625	-3.2042	-3.4833	-3.05	-3.2521	-3.2667	-3.1125	-3.4021	-3.1437	-2.8708	225.899	337.114	321.939	237.619	287.700	187.015	276.038	204.775	258.137	148.663	194.645	117.598	202.200	278.111	118.816	206.435	0.00065528	0.00054789	4.125e-05	1288.4	7.2144e-06	1.698e-06	1371.9	275.86	4.6961e-06	4.0056e-06	337.77	93.626	76.09	22.316	3.0628e-06	29.585	0.00047347	0.00047989	0.00013429	1275.9	5.3175e-06	5.3436e-06	1351.2	277.7	5.5257e-06	5.5632e-06	340.64	97.246	78.357	23.776	5.5625e-06	31.699	13.023	58.605	2.049	-7.793	-18.088	187.449	-7.719	-0.518	180.880	84.613	-0.358	5.941	6.331	13.010	151.731	12.145	-8191	255	
541.452	1	1	0	0	0.11598	0.25562	0.25023	0.15162	0.19946	0.044777	0.15267	0.18593	0.11758	0.038661	0.28496	0.062356	0.21379	0.3384	0.035182	0.11451	-2.9542	-3.0062	-3.0229	-3.6042	-2.7812	-3.1979	-3.4417	-2.9313	-3.4688	-3.0583	-3.2667	-3.6208	-2.9729	-3.4333	-3.2062	-2.9208	10.366	148.163	118.269	333.722	291.358	192.180	257.810	283.997	139.203	66.709	291.058	87.859	338.975	307.211	279.006	291.335	0.0007387	0.0004988	0.00016703	1282.8	4.7961e-06	7.9939e-06	1369.1	275.79	1.2492e-05	1.0314e-05	336.53	93.726	75.633	22.311	3.6058e-06	29.848	0.00050368	0.00050373	0.00014045	1275.7	5.4854e-06	5.4906e-06	1353.6	277.25	5.442e-06	5.4266e-06	339.14	96.712	78.015	23.638	5.4117e-06	31.586	293.780	152.266	112.418	-7.687	160.298	90.952	-7.816	-0.618	164.243	204.453	-0.659	6.046	6.082	12.742	118.175	12.382	-8191	255	
541.548	1	1	0	0	0.016702	0.13574	0.16032	0.16609	0.18646	0.10021	0.1339	0.2207	0.14627	0.12879	0.27495	0.24809	0.12428	0.17455	0.19087	0.18985	-2.9271	-3.1042	-2.9583	-3.4375	-2.95	-3.2792	-3.4521	-3.0792	-3.3917	-3.1354	-2.9813	-3.4875	-2.9417	-3.0979	-3.1396	-3.0625	162.359	299.419	242.062	313.723	266.675	-13.548	277.638	286.764	97.144	335.676	300.358	295.812	-1.629	-9.165	-13.053	207.594	0.00080978	0.00050702	0.00014815	1290.3	2.248e-06	1.7333e-06	1363.9	275.32	6.1251e-06	5.1911e-06	335.85	93.981	75.717	22.287	1.1715e-06	29.792	0.00048967	0.0004893	0.00013762	1276.5	5.4402e-06	5.5215e-06	1350.3	277.79	5.501e-06	5.4692e-06	338.78	96.775	77.954	23.631	5.4206e-06	31.52	321.866	66.779	41.688	-7.758	178.714	158.270	-7.742	-0.267	191.276	262.032	-0.447	5.933	6.284	12.768	125.064	12.351	-8191	255	
541.644	1	1	0	0	0.22647	0.21193	0.075195	0.26424	0.23855	0.19663	0.23141	0.18893	0.21797	0.1299	0.24596	0.086763	0.2246	0.24559	0.02832	0.083473	-2.8354	-3.0625	-3.0062	-3.6375	-2.8958	-3.1583	-3.3667	-3.0104	-3.2896	-3.0979	-3.0625	-3.4958	-3.0104	-3.1292	-3.225	-2.85	58.979	247.108	21.656	-10.612	241.294	23.965	250.290	266.651	325.298	254.770	328.600	48.597	-9.663	244.758	294.712	122.797	0.00073779	0.00052865	0.00021626	1286.7	6.3854e-06	4.8617e-06	1362.4	275.28	3.4996e-06	6.6253e-06	335.2	93.795	76.057	22.262	6.2312e-06	29.732	0.00048858	0.00048567	0.00013597	1274.2	5.3228e-06	5.4026e-06	1351.1	277.49	5.3781e-06	5.3534e-06	338.54	96.579	77.975	23.558	5.1654e-06	31.367	312.274	26.403	-5.930	-7.625	62.794	171.588	-7.588	-0.209	124.849	209.583	-0.673	6.157	6.224	12.937	156.292	12.582	-8191	255	
541.740	1	1	0	0	0.19268	0.065134	0.33428	0.18175	0.092408	0.17648	0.059928	0.24841	0.020995	0.082602	0.2774	0.10065	0.15873	0.072673	0.29456	0.21993	-2.8563	-3.1167	-2.7229	-3.5521	-3.0729	-3.125	-3.6125	-3.0521	-3.1625	-3.2667	-3.1396	-3.3083	-3.0563	-3.0583	-3.3375	-3.075	48.784	247.845	8.755	299.249	230.255	296.702	249.833	280.825	119.433	228.358	296.723	112.397	-4.993	181.533	15.016	262.859	0.00057161	0.00090481	0.00011965	1287.8	4.2999e-06	4.7878e-06	1371.3	275.08	1.0679e-05	6.821e-06	335.06	93.309	75.807	22.329	8.6941e-07	29.872	0.00048186	0.00047852	0.00013457	1275.7	5.3595e-06	5.3679e-06	1351.7	277.31	5.3726e-06	5.362e-06	338.7	96.465	78.122	23.661	5.3453e-06	31.618	3.207	-0.096	57.444	-7.847	218.675	199.784	-7.814	-0.612	150.525	313.287	-0.817	5.755	6.250	13.136	183.702	12.560	-8191	255	
541.836	1	1	0	0	0.15003	0.12943	0.18407	0.25393	0.052501	0.147	0.16303	0.16226	0.11748	0.19983	0.29853	0.1023	0.27832	0.064948	0.17898	0.23663	-2.7188	-3.4583	-2.8417	-3.525	-3.0208	-2.7958	-3.6375	-3.0292	-3.1417	-3.3354	-2.8646	-3.5792	-3.1437	-3.0667	-3.4208	-2.8771	229.036	213.945	196.779	274.407	-13.827	292.377	248.336	283.718	300.575	227.297	306.192	321.303	315.321	242.671	165.243	299.540	0.00044331	0.00021867	0.00010637	1288.2	3.3205e-06	5.791e-06	1365.2	275.05	1.2601e-05	5.741e-06	336.91	93.774	75.535	22.375	7.106e-06	29.988	0.00047863	0.0004817	0.00013345	1275.9	5.1603e-06	5.1831e-06	1349.1	276.9	5.2349e-06	5.2631e-06	339.17	96.523	77.693	23.52	5.1059e-06	31.403	335.940	80.226	143.795	-7.753	135.814	155.841	-7.710	-0.619	116.175	294.989	-0.701	6.058	6.256	12.902	129.247	12.382	-8191	255	
541.932	1	1	0	0	0.071584	0.059158	0.090879	0.26313	0.16267	0.077132	0.3885	0.39248	0.26697	0.046006	0.27813	0.062947	0.25201	0.13439	0.16845	0.14222	-2.6604	-3.2146	-2.8667	-3.5938	-3.3	-3.0042	-3.4146	-3.1354	-3.2521	-3.2542	-3.1521	-3.3771	-3.2625	-2.8187	-3.2917	-3.175	16.014	233.993	16.545	253.089	209.118	144.839	262.837	249.785	147.554	109.939	263.628	15.628	246.364	253.733	229.005	-8.820	0.00031404	0.00022506	0.00016507	1286.5	6.3489e-06	3.9176e-06	1367.1	273.22	6.4951e-06	8.413e-06	335.2	93.118	76.222	22.617	2.7587e-06	29.79	0.00045676	0.00046162	0.00012816	1274.1	4.9785e-06	4.9528e-06	1347.9	275.44	4.8739e-06	4.846e-06	336.75	95.671	77.525	23.479	4.8025e-06	31.175	15.856	171.816	128.287	-7.651	109.565	78.675	-7.672	-0.388	179.094	183.108	-0.968	6.217	6.255	12.788	77.407	12.071	-8191	255	
542.053	1	1	0	0	0.2695	0.034062	0.27308	0.10069	0.068127	0.14087	0.23237	0.28611	0.10317	0.15703	0.1662	0.12237	0.077326	0.11319	0.071554	0.17978	-2.6292	-3.4021	-2.8812	-3.3396	-3.2042	-2.7604	-3.4229	-3.1104	-2.9521	-3.3729	-3.1562	-3.3875	-3.3854	-2.9521	-3.3146	-3.0687	-15.579	140.869	15.375	-17.525	-8.609	192.457	240.555	239.618	35.889	115.102	182.800	277.909	289.518	67.900	82.643	265.405	0.00052685	0.00029602	0.00021827	1283.9	3.6042e-06	1.2898e-06	1369.5	275.34	4.7794e-06	8.7632e-07	337.35	93.392	75.802	22.253	3.6105e-06	29.897	0.00043523	0.00043271	0.00012014	1271	4.6676e-06	4.6845e-06	1347.9	275.53	4.6214e-06	4.6199e-06	336.53	95.105	77.15	23.252	4.6249e-06	31.142	265.386	230.855	146.081	-7.798	276.467	192.093	-7.703	-0.512	148.350	283.134	-0.787	5.929	6.469	12.595	176.088	12.249	-8191	255	
542.149	1	1	0	0	0.26886	0.28048	0.041325	0.31797	0.13187	0.094792	0.27347	0.17327	0.14337	0.27022	0.18665	0.20421	0.097732	0.0092148	0.1498	0.11415	-2.6833	-3.3458	-2.8	-3.2062	-3.3688	-3	-3.4792	-3.2875	-3.0687	-3.5062	-2.9938	-3.2604	-3.3583	-2.8792	-3.2375	-3.1792	286.181	205.337	319.054	336.266	208.602	98.317	309.802	321.708	-14.851	195.371	325.865	-1.205	23.378	278.340	-14.227	52.997	0.00067588	0.00043728	0.00014555	1287.3	5.8486e-06	3.186e-06	1365.2	275.24	3.8521e-06	8.0794e-06	334.65	93.594	75.91	22.338	7.6943e-06	29.953	0.0004243	0.00042636	0.00011886	1271.2	4.7318e-06	4.6915e-06	1344.2	275.79	4.7021e-06	4.7056e-06	336.03	95.302	77.444	23.409	4.6178e-06	31.083	-3.673	50.140	25.627	-7.799	131.633	146.213	-7.916	-0.653	314.094	163.129	-0.366	5.858	6.401	12.603	134.496	12.396	-8191	255	
542.245	1	1	0	0	0.12044	0.20294	0.084068	0.32059	0.23462	0.24592	0.37008	0.18804	0.21458	0.19793	0.17814	0.24486	0.086104	0.11163	0.079999	0.10528	-2.5604	-3.4	-3.0938	-3.225	-3.2771	-2.8917	-3.4479	-3.0958	-2.7687	-3.3583	-2.9875	-2.8958	-3.5167	-3.1229	-3.2625	-3.4833	334.806	82.571	323.995	305.922	30.837	307.283	285.017	175.217	336.352	234.828	-15.491	279.549	290.228	333.765	334.943	102.351	0.0002473	0.00033684	0.00014136	1288.2	1.0222e-05	6.0297e-06	1369.4	276.17	8.0655e-06	4.7447e-06	335.44	94.395	76.02	22.401	4.6621e-06	29.793	0.00042032	0.00041982	0.00011629	1271.1	4.6078e-06	4.6086e-06	1343.5	275.72	4.5988e-06	4.6414e-06	335.79	95.605	77.274	23.335	4.4901e-06	31.049	318.845	62.602	37.456	-7.695	7.569	234.920	-7.702	-0.473	130.567	145.237	-0.931	5.705	6.547	12.875	136.907	12.054	-8191	255	
542.340	1	1	0	0	0.070951	0.077307	0.014213	0.21014	0.077166	0.16012	0.19615	0.16843	0.065625	0.14974	0.19578	0.31664	0.16901	0.12779	0.12427	0.12121	-2.5187	-3.3083	-3.0396	-3.2875	-3.3604	-3.0604	-3.3271	-3.5667	-2.8771	-3.3063	-3.1833	-2.8854	-3.6146	-2.9708	-3.1479	-3.3396	224.050	306.748	22.015	290.884	195.219	300.582	240.051	278.042	187.925	256.489	207.337	287.116	-13.845	290.376	184.457	206.997	0.00073322	0.00069651	0.00022718	1289.9	3.1211e-06	9.1192e-06	1368.1	275.27	8.1355e-06	2.3784e-06	334.38	93.163	75.582	22.432	8.8055e-06	29.596	0.00041234	0.00040816	0.00011275	1269.7	4.4657e-06	4.4779e-06	1344.3	275.32	4.5702e-06	4.5587e-06	335.77	95.164	77.19	23.363	4.6001e-06	31.062	337.015	31.199	315.083	-7.531	34.037	194.670	-7.774	-0.207	146.785	163.818	-0.329	6.237	6.015	12.419	114.158	12.190	-8191	255	
542.436	1	1	0	0	0.14487	0.13335	0.25825	0.25084	0.26896	0.27952	0.2738	0.36643	0.046872	0.011321	0.12522	0.22299	0.070212	0.16274	0.17466	0.047489	-2.4542	-3.2	-2.9771	-3.1458	-3.3708	-3.0687	-3.3125	-3.4229	-2.9875	-3.1146	-3.1917	-2.8646	-3.4229	-3.0229	-3.1833	-3.4042	327.660	61.121	61.850	289.388	118.850	52.115	296.727	-13.501	294.463	6.904	202.309	280.526	50.614	56.573	235.110	131.230	0.00046264	0.00029924	0.00014023	1288.3	2.9523e-06	6.73e-06	1361.1	275.3	3.3125e-06	6.5318e-06	334.76	93.626	75.7	22.145	6.3767e-06	29.623	0.00041549	0.00041345	0.00011537	1270.3	4.4826e-06	4.4594e-06	1341.7	275.07	4.4281e-06	4.4178e-06	334.77	95.118	77.024	23.19	4.4693e-06	30.894	335.424	90.936	26.749	-7.688	82.495	170.659	-7.762	-0.375	156.394	126.190	-0.549	5.982	6.369	12.678	111.688	12.562	-8191	255	
542.532	1	1	0	0	0.20976	0.034534	0.29168	0.10155	0.24627	0.098278	0.37924	0.20708	0.21922	0.27398	0.076727	0.28454	0.16667	0.072826	0.11585	0.21754	-2.4542	-3.1979	-3.2833	-3.0438	-3.3479	-2.9813	-3.2479	-3.6146	-3.075	-3.1979	-3.3458	-2.9104	-3.3583	-3.2625	-2.9875	-3.4375	334.976	1.486	199.029	279.522	336.873	228.414	294.911	285.793	317.983	32.752	189.632	234.929	278.556	261.404	153.088	264.670	0.00035963	0.00030803	7.25e-05	1283.9	2.8156e-06	2.7245e-06	1366.2	275.55	7.2037e-06	3.5071e-06	335.85	93.58	75.672	22.195	5.9566e-06	29.685	0.00040138	0.00040238	0.00011078	1267.2	4.3249e-06	4.2736e-06	1340.5	274.32	4.3055e-06	4.2756e-06	334.06	94.584	76.876	23.089	4.1776e-06	30.748	-9.241	-6.839	36.173	-7.489	330.398	140.704	-7.604	-0.583	312.041	171.865	-0.860	5.856	6.342	12.538	166.730	12.144	-8191	255	
542.653	1	1	0	0	0.090542	0.33146	0.25088	0.31631	0.16352	0.15489	0.20851	0.44757	0.07637	0.039478	0.19096	0.12902	0.10763	0.20597	0.12558	0.085157	-2.5896	-3.0583	-3.2125	-3.0208	-3.3187	-3.1833	-3.1375	-3.5146	-3.0646	-3.0167	-3.2917	-2.8438	-3.3708	-3.1063	-2.9042	-3.3771	306.988	15.169	257.285	304.163	222.431	5.903	292.880	305.405	324.125	303.542	311.057	182.812	1.224	54.017	167.012	162.720	0.0008888	0.00011562	0.00014853	1287.5	6.697e-06	5.6664e-06	1367.2	274.22	6.192e-06	4.3315e-06	335.25	93.48	75.528	22.309	2.8768e-06	29.767	0.00037451	0.00037439	0.00010307	1266.2	4.0418e-06	3.9703e-06	1339.9	273.93	3.9902e-06	4.0515e-06	332.81	94.085	76.506	23.005	4.0157e-06	30.677	337.774	88.157	64.987	-7.684	61.369	236.353	-7.541	-0.235	89.895	210.654	-0.507	5.945	6.189	13.000	27.097	12.524	-8191	255	
542.749	1	1	0	0	0.14006	0.088803	0.29033	0.20191	0.33391	0.15246	0.21057	0.10904	0.031881	0.23601	0.11817	0.092568	0.25339	0.072213	0.048717	0.12164	-2.6604	-3.2062	-3.2188	-3.1229	-3.1813	-3.1937	-3.1667	-3.5771	-3.1688	-3.0083	-3.4833	-2.9062	-3.3354	-3.4354	-2.8083	-3.4	245.160	164.604	87.969	281.245	220.873	76.153	300.029	23.060	-2.451	65.951	295.518	237.464	325.703	169.987	301.134	286.315	0.0008016	0.00059541	6.7798e-05	1293.4	3.3795e-06	5.7294e-06	1361.3	273.85	7.3281e-06	3.8842e-06	335.12	93.089	75.372	22.138	2.6391e-06	29.708	0.00036358	0.00036217	0.00010125	1268.3	3.9866e-06	3.9721e-06	1337.1	273.68	3.9923e-06	4.039e-06	332.89	94.262	76.238	22.975	4.008e-06	30.622	303.656	86.888	294.324	-7.558	24.360	164.480	-7.689	-0.215	199.690	236.991	-0.720	5.914	6.505	12.600	112.859	12.819	-8191	255	
542.845	1	1	0	0	0.25179	0.14658	0.098579	0.33715	0.092499	0.03652	0.40295	0.12463	0.21262	0.31445	0.14901	0.13783	0.22177	0.12618	0.12849	0.032741	-2.6	-2.9229	-3.4479	-2.9875	-3.0292	-3.3833	-3.1958	-3.4542	-3.1917	-3.0396	-3.5229	-2.9375	-3.0833	-3.1542	-3.0125	-3.3833	58.384	123.925	119.506	279.003	142.300	-15.397	232.722	260.880	180.668	308.035	254.255	3.292	309.994	-7.488	136.875	157.618	0.00034256	0.00049612	3.3396e-05	1289.3	5.4555e-06	8.2997e-06	1366.7	275.15	4.6998e-06	3.6557e-06	332.93	93	75.547	22.214	6.6473e-06	29.826	0.00037017	0.00036902	0.00010226	1266	4.0466e-06	4.0047e-06	1339.4	273.53	3.994e-06	4.0747e-06	332.68	94.219	76.249	22.988	4.0208e-06	30.641	336.385	35.003	30.506	-7.816	198.533	200.293	-7.719	-0.350	206.190	167.357	-0.842	6.127	6.404	13.228	121.564	12.641	-8191	255	
542.917	1	1	0	0	0.098903	0.049229	0.18487	0.12545	0.24934	0.18485	0.12253	0.40806	0.22634	0.062202	0.1916	0.2293	0.042361	0.2152	0.24711	0.048662	-2.6479	-3.0042	-3.3333	-3.2104	-3.1188	-3.2167	-2.9125	-3.5187	-3.1937	-2.9833	-3.3563	-3.0042	-3.0917	-3.3438	-2.8625	-3.1937	208.403	-12.270	9.319	187.503	39.377	163.000	322.888	265.041	305.838	95.380	268.475	284.975	51.290	315.625	59.548	298.919	0.00072717	0.00058146	4.1535e-05	1283.5	7.6665e-06	3.4976e-06	1359.2	274.08	7.4119e-06	4.3845e-06	336.48	93.023	75.554	22.36	7.3407e-06	29.625	0.00036415	0.00036178	9.9533e-05	1264.9	3.9349e-06	3.878e-06	1336.3	273.51	3.8228e-06	3.8617e-06	332.69	93.869	76.043	22.93	3.8679e-06	30.584	-11.094	79.174	65.789	-7.523	297.772	22.350	-7.757	-0.510	245.724	237.498	-0.993	6.243	6.554	12.806	94.655	12.381	-8191	255	
543.037	1	1	0	0	0.12914	0.098946	0.24139	0.14722	0.27623	0.21206	0.28198	0.13833	0.13945	0.13638	0.17094	0.051324	0.037289	0.1524	0.073228	0.16885	-2.9167	-2.7812	-3.3542	-3.1229	-3.0896	-3.4417	-3.225	-3.25	-3.3146	-2.95	-3.3521	-3.1375	-3.0167	-3.3812	-3.0563	-3.2104	340.902	66.323	78.110	264.368	238.029	101.062	337.709	245.522	268.791	144.790	302.524	36.589	296.846	132.989	283.641	-15.147	0.00049126	0.00025562	0.00013563	1285.8	5.3645e-06	5.0479e-06	1359.5	274.28	8.8328e-06	1.3348e-06	334.8	93.859	75.498	22.234	2.3197e-06	29.804	0.00035654	0.00035886	9.9467e-05	1263.8	3.9841e-06	3.9331e-06	1337.2	273.06	3.8566e-06	3.9014e-06	332.24	93.818	76.01	22.837	3.7861e-06	30.449	333.637	104.961	96.492	-7.526	134.771	184.496	-7.507	-0.620	136.828	157.406	-0.598	5.783	6.408	12.643	185.075	12.564	-8191	255	
543.133	1	1	0	0	0.24131	0.076206	0.11545	0.080969	0.16043	0.22075	0.32672	0.21882	0.10985	0.16359	0.23504	0.10314	0.11303	0.16932	0.087611	0.21602	-2.8563	-2.9271	-3.2812	-3.2958	-2.9625	-3.4958	-2.8833	-3.2542	-3.4542	-3.1312	-3.3729	-3.2146	-3.0729	-3.4021	-3.0062	-3.1167	125.983	257.781	156.894	307.532	-11.955	187.048	277.255	32.504	47.510	285.753	301.598	14.480	124.576	-12.302	259.207	268.030	0.00082888	0.00053793	5.0891e-05	1282.9	6.3771e-07	5.2301e-06	1365.8	273.85	2.5758e-06	5.1249e-06	334.76	92.884	75.755	22.222	7.3095e-06	29.463	0.00034371	0.00034527	9.5633e-05	1262.4	3.7503e-06	3.7224e-06	1335.6	272.48	3.7866e-06	3.7043e-06	331.37	93.434	75.988	22.794	3.6616e-06	30.353	330.517	34.048	182.186	-7.773	165.102	181.578	-7.689	-0.687	192.438	204.729	-0.603	6.313	6.483	13.177	102.155	12.789	-8191	255	
543.230	1	1	0	0	0.11871	0.055083	0.18012	0.61262	0.22645	0.070269	0.11497	0.062628	0.061748	0.21616	0.076684	0.17188	0.29722	0.1193	0.067564	0.062247	-3.0792	-3.025	-3.2021	-3.2333	-2.8625	-3.3042	-3.1875	-3.0375	-3.4542	-3	-3.2479	-3.3396	-2.9562	-3.4229	-3.05	-3.1542	132.803	57.113	-11.268	292.503	250.365	226.439	44.402	313.810	318.662	16.421	309.748	155.861	304.789	10.438	24.711	31.545	0.000629	6.5575e-05	0.00015842	1288.4	3.682e-06	1.866e-06	1362.4	272.57	7.1098e-06	1.0464e-06	332.93	92.475	75.084	22.137	2.8939e-06	29.521	0.00033214	0.00033281	9.2113e-05	1261.7	3.6289e-06	3.5869e-06	1332.4	271.75	3.5215e-06	3.4842e-06	329.68	93.002	75.421	22.592	3.4251e-06	30.158	337.892	143.574	65.214	-7.685	102.167	322.012	-7.896	-0.321	322.392	77.148	-0.840	6.267	6.317	13.202	45.410	12.957	-8191	255	
543.326	1	1	0	0	0.082051	0.048877	0.1241	0.57598	0.22943	0.14107	0.47938	0.14876	0.030553	0.14531	0.24373	0.25495	0.13877	0.24884	0.18361	0.12319	-3.0563	-2.8021	-3.1854	-3.3521	-2.9021	-3.3792	-3.1312	-2.9708	-3.4917	-3.0292	-3.2958	-3.25	-3.0021	-3.1562	-3.2021	-2.975	80.041	66.817	255.311	298.962	120.374	250.818	315.369	332.307	114.925	142.698	248.011	239.852	12.221	320.564	303.396	324.904	0.0009064	0.00059462	9.1258e-05	1282.6	1.6329e-06	3.5712e-06	1360.8	273.24	6.2942e-06	2.8049e-06	334.97	93.049	75.051	22.116	6.3894e-06	29.548	0.00031712	0.00031072	8.6531e-05	1258.2	3.4518e-06	3.4119e-06	1328.8	271.35	3.5206e-06	3.464e-06	329.74	93.032	75.372	22.606	3.425e-06	30.19	-18.266	56.692	43.984	-7.595	276.630	189.437	-7.623	-0.325	165.474	108.688	-0.240	6.263	6.540	13.044	138.593	12.462	-8191	255	
543.445	1	1	0	0	0.041965	0.1607	0.052086	0.080558	0.30459	0.12364	0.085606	0.27178	0.12308	0.08	0.21233	0.057012	0.087153	0.21531	0.11483	0.16823	-2.8792	-2.9583	-3.0438	-3.425	-2.8688	-3.2021	-3.4042	-2.9417	-3.3021	-3.0687	-3.2646	-3.3854	-3.1146	-3.3667	-3.0729	-2.925	217.016	0.447	34.210	317.187	136.293	188.015	213.379	283.461	97.363	81.087	7.697	263.893	268.017	261.884	272.464	269.431	0.00081548	0.00054669	2.1195e-05	1283.3	6.8467e-06	1.0931e-06	1355.4	272.33	1.6049e-05	6.2834e-06	332.55	93.097	75.172	22.046	5.0695e-06	29.405	0.00031111	0.00031274	8.6142e-05	1256.7	3.4004e-06	3.4137e-06	1327.9	270.2	3.4007e-06	3.4014e-06	328.62	92.677	75.16	22.563	3.406e-06	30.067	-9.696	36.578	135.841	-7.523	96.600	61.786	-7.613	-0.290	143.145	163.965	-0.501	6.054	6.147	12.948	81.912	12.696	-8191	255	
543.516	1	1	0	0	0.22376	0.14608	0.076137	0.31755	0.25965	0.075313	0.3111	0.061561	0.092806	0.16103	0.24248	0.099043	0.040765	0.020274	0.17217	0.20266	-3.0479	-2.9292	-3.0833	-3.6479	-2.9917	-3.175	-3.3729	-3.1604	-3.3792	-2.9708	-3.0104	-3.2583	-3.025	-3.0333	-3.1937	-2.8604	-15.506	274.064	201.157	298.262	332.876	278.855	272.290	211.601	177.676	20.355	9.169	319.123	6.871	267.788	81.772	121.017	0.00076619	0.00038145	5.4526e-05	1280.2	2.6477e-06	4.5613e-06	1361.7	272.43	7.8945e-06	3.3792e-06	334.45	93.218	75.123	22.139	3.1127e-06	29.723	0.00031154	0.00031022	8.6689e-05	1255.8	3.3886e-06	3.3571e-06	1328.7	270.64	3.3585e-06	3.2612e-06	328.79	92.588	75.241	22.513	3.2787e-06	30.131	-8.186	38.513	156.000	-7.560	261.895	150.930	-7.909	-0.563	134.064	236.135	-0.705	6.428	6.284	13.245	190.069	12.852	-8191	255	
543.614	1	1	0	0	0.073554	0.13566	0.08617	0.29719	0.10072	0.16495	0.043562	0.026976	0.22546	0.094971	0.18918	0.19388	0.185	0.098483	0.15573	0.21194	-2.8042	-3.0958	-2.9729	-3.5167	-2.9938	-3.0979	-3.4375	-2.9708	-3.3854	-3.3854	-3.0604	-3.3104	-3.1583	-3.2583	-3.3208	-2.9208	226.958	283.694	78.925	244.109	13.766	64.026	271.443	267.284	150.677	284.407	331.275	212.554	294.848	276.057	280.059	109.045	0.00065856	0.00064492	0.00010827	1286.5	2.1585e-06	2.9685e-06	1360.6	273.4	3.215e-06	4.1955e-06	331.49	92.357	74.711	21.821	1.5125e-06	29.384	0.00030073	0.00029895	8.2497e-05	1258.5	3.2331e-06	3.1979e-06	1327.6	270.12	3.1473e-06	3.1327e-06	327.1	92.074	75.039	22.3	3.0886e-06	29.887	336.606	4.720	4.321	-7.605	58.008	89.479	-7.481	-0.742	114.398	193.557	-0.833	6.060	6.711	12.944	101.132	12.772	-8191	255	
543.733	1	1	0	0	0.33323	0.050827	0.071045	0.22401	0.081889	0.17442	0.24248	0.22301	0.10136	0.16688	0.20547	0.19893	0.070596	0.15173	0.19356	0.1519	-2.8229	-3.0625	-2.8021	-3.6271	-2.9208	-3.0354	-3.4625	-2.9437	-3.2229	-3.1937	-2.9562	-3.2438	-2.975	-2.9625	-3.4833	-3.0083	304.837	69.010	250.540	294.516	-11.789	54.022	338.054	-0.879	12.360	79.114	54.635	286.906	13.522	277.269	289.620	-14.979	0.00054807	0.0005928	0.00010021	1279.4	1.6905e-06	4.9662e-06	1357.4	271.92	3.5156e-06	8.5118e-06	332.57	92.395	74.613	21.946	5.2241e-06	29.29	0.00028746	0.00028283	7.9109e-05	1254.9	3.1129e-06	3.1265e-06	1326.2	269.53	3.1406e-06	3.1233e-06	327.54	92.058	74.801	22.43	3.1837e-06	29.895	-18.249	72.831	65.980	-7.511	93.550	139.461	-7.699	-0.476	93.008	191.411	-0.509	6.227	6.711	13.546	116.158	12.521	-8191	255	
543.829	1	1	0	0	0.3089	0.13367	0.08	0.23314	0.23885	0.078588	0.092034	0.14569	0.1151	0.093246	0.24016	0.19387	0.18734	0.067351	0.16696	0.12259	-2.7542	-3.3375	-2.7917	-3.55	-3.1396	-3.0083	-3.4875	-3.0854	-3.0625	-3.2979	-3.1375	-3.3146	-3.2896	-2.9708	-3.1063	-3.025	12.200	145.041	340.422	287.043	172.458	284.497	318.234	6.934	239.023	264.728	56.772	62.210	169.133	306.265	121.559	125.343	0.00092407	0.00048961	0.00017135	1281.4	7.7689e-06	1.3471e-06	1357.3	271.26	7.5176e-06	1.8916e-06	331.16	91.919	75.04	21.898	5.36e-06	29.32	0.00029224	0.00029118	8.0676e-05	1255.3	3.1421e-06	3.1282e-06	1326.6	269.07	3.1856e-06	3.1371e-06	326.65	92.007	74.924	22.409	3.1684e-06	29.965	-13.527	5.163	60.774	-7.690	117.131	270.349	-7.575	-0.216	195.280	210.422	-0.296	5.985	6.330	13.259	116.088	13.216	-8191	255	
543.925	1	1	0	0	0.11179	0.22677	0.10504	0.16433	0.33182	0.12589	0.031668	0.14082	0.088632	0.14957	0.039899	0.25805	0.05955	0.12206	0.098161	0.15179	-2.575	-3.3312	-2.7479	-3.4375	-3.0375	-2.8021	-3.5563	-3.1	-3.0854	-3.2313	-2.9313	-3.275	-3.3167	-2.9667	-3.2562	-3.0479	210.718	196.582	75.596	184.247	47.549	225.845	243.797	143.606	320.536	202.884	-0.117	245.951	-10.466	4.643	297.919	196.783	0.00065824	0.00047551	0.00011472	1274.7	3.958e-06	8.2444e-07	1361.1	271.36	8.9286e-06	4.4448e-06	331.55	92.454	74.456	21.674	4.301e-06	29.607	0.00028885	0.00028331	7.8357e-05	1251.8	3.1464e-06	3.0842e-06	1326.2	269.12	3.1486e-06	3.0933e-06	326.58	91.867	74.575	22.246	3.0488e-06	29.807	-13.418	301.922	46.214	-7.628	26.763	223.621	-7.497	-0.266	97.029	195.083	-0.513	5.874	6.635	13.199	87.969	12.429	-8191	255	
544.046	1	1	0	0	0.2345	0.03407	0.12622	0.28859	0.044464	0.10799	0.24243	0.16925	0.21052	0.019269	0.305	0.21662	0.15659	0.093872	0.042469	0.15688	-2.5271	-3.4792	-2.7854	-3.2208	-3.0687	-2.8104	-3.4208	-3.2833	-3.0521	-3.4083	-2.9688	-3.1937	-3.3146	-2.9667	-3.3667	-3.15	84.582	53.542	295.181	300.829	81.877	188.712	259.898	339.206	52.702	-8.184	13.054	279.617	-10.029	69.426	-11.686	319.173	0.00029238	0.00062131	4.7376e-05	1283.1	2.7308e-06	4.0052e-06	1356.8	272.11	1.3428e-05	8.6632e-07	330.95	92.433	74.454	21.944	3.7874e-06	29.406	0.00028347	0.00027565	7.6975e-05	1252.1	3.0662e-06	2.987e-06	1322.6	268.85	3.0071e-06	3.0239e-06	326.13	91.622	74.386	22.24	2.8994e-06	29.68	339.375	-6.783	258.043	-7.490	151.423	-9.165	-7.500	-0.246	137.889	13.038	-0.405	6.440	6.690	13.088	-2.897	12.697	-8191	255	
544.142	1	1	0	0	0.090962	0.093328	0.050893	0.26307	0.12545	0.14766	0.11412	0.21689	0.069272	0.12646	0.27811	0.15831	0.22701	0.31129	0.084311	0.057899	-2.5646	-3.2521	-2.8625	-3.2917	-3.2062	-2.9271	-3.4188	-3.1125	-2.8958	-3.3688	-3.05	-3.0563	-3.3104	-2.8688	-3.1375	-3.225	184.444	228.453	281.166	5.384	64.498	125.615	262.202	300.541	273.968	222.827	30.533	87.481	339.742	334.589	55.635	230.644	0.00080487	5.6839e-05	0.00010927	1278	1.1484e-05	7.3324e-06	1352.9	272.36	6.4746e-06	7.6016e-06	332.04	92.814	74.56	21.862	4.959e-06	29.316	0.00027163	0.00026584	7.3419e-05	1249.4	2.9641e-06	2.8894e-06	1320.9	268.32	2.9634e-06	2.9683e-06	326.19	91.719	74.396	22.213	2.9428e-06	29.7	337.853	86.324	22.466	-7.702	106.955	40.869	-7.627	0.033	56.904	205.147	-0.673	6.204	6.636	13.181	120.952	12.585	-8191	255	
544.214	1	1	0	0	0.21082	0.066083	0.12771	0.307	0.082093	0.026504	0.27065	0.048381	0.17587	0.11501	0.23639	0.2014	0.044348	0.30039	0.21674	0.29382	-2.4958	-3.4021	-2.9562	-3.2188	-3.1813	-2.8417	-3.5563	-3.3917	-2.9313	-3.3604	-3.2083	-3.125	-3.4208	-2.825	-3.1333	-3.1333	260.665	30.791	125.859	322.213	322.839	292.525	340.545	121.639	261.422	329.322	210.760	15.213	101.407	194.269	-6.688	302.157	0.00047022	0.00061216	9.7628e-05	1279.3	4.5129e-06	7.2947e-06	1352.4	269.86	3.4277e-06	6.453e-06	330.92	92.205	74.11	21.748	1.9856e-06	29.16	0.00027276	0.00027053	7.5209e-05	1248.8	2.9628e-06	2.9211e-06	1319.3	267.62	2.9359e-06	2.9133e-06	325.36	91.252	74.163	22.105	2.8897e-06	29.514	-10.409	32.146	148.149	-7.724	26.308	55.738	-7.549	-0.113	103.144	116.366	-0.560	6.306	6.691	12.973	123.307	12.617	-8191	255	
544.334	1	1	0	0	0.25628	0.16523	0.21372	0.20421	0.11247	0.26473	0.11022	0.18324	0.18149	0.079112	0.20374	0.20697	0.12167	0.080555	0.16094	0.041867	-2.3521	-3.3812	-3.1021	-2.9792	-3.3896	-3.1271	-3.3187	-3.3042	-2.8146	-3.2562	-3.1063	-2.8187	-3.4354	-2.9229	-3.0729	-3.3438	273.751	336.820	323.496	318.578	185.614	235.707	260.645	305.973	212.322	148.240	205.737	306.905	323.621	184.659	192.445	263.487	0.00082579	0.00022906	0.00016374	1271.7	4.3642e-06	7.9913e-06	1356.5	270.79	7.724e-06	4.9859e-06	331.03	92.135	74.115	21.492	2.8484e-06	29.1	0.0002711	0.00026715	7.388e-05	1247	2.9743e-06	2.9594e-06	1319.1	267.62	2.9694e-06	2.9565e-06	325.11	91.135	73.991	21.98	2.8831e-06	29.532	334.730	287.877	73.774	-7.541	0.695	258.950	-7.419	-0.405	109.922	265.066	-0.683	5.951	6.601	13.479	144.577	12.905	-8191	255	
544.429	1	1	0	0	0.18761	0.076193	0.24976	0.24159	0.043913	0.098302	0.2777	0.17252	0.1466	0.14233	0.1619	0.35133	0.30806	0.28377	0.10564	0.25639	-2.5125	-3.2021	-3.2021	-3.1042	-3.4938	-3.0271	-3.375	-3.3021	-2.9313	-3.2604	-3.15	-2.9417	-3.2812	-3.0042	-3.0187	-3.2917	57.191	315.722	314.554	276.912	-17.847	65.818	289.782	233.428	72.329	325.285	3.381	285.201	2.550	13.107	13.266	247.784	0.00063373	0.00037511	2.9647e-05	1272	6.9897e-06	8.9793e-06	1350.1	270.56	9.7329e-06	4.4501e-06	331.94	91.787	73.943	21.759	4.3626e-06	29.124	0.00026091	0.00025878	7.1753e-05	1242.9	2.8414e-06	2.8573e-06	1317.3	266.98	2.8117e-06	2.7883e-06	324.49	90.471	73.729	21.999	2.762e-06	29.438	-16.559	148.784	-13.455	-7.554	76.258	116.412	-7.482	-0.397	117.187	180.503	-0.445	6.051	6.528	13.099	217.675	12.490	-8191	255	
544.525	1	1	0	0	0.083041	0.19251	0.18887	0.17964	0.15373	0.18657	0.25025	0.13814	0.073983	0.14366	0.18848	0.16793	0.21191	0.11731	0.19773	0.21128	-2.3688	-3.1688	-3.1937	-3.1292	-3.2583	-3.0833	-3.2021	-3.3771	-2.9396	-3.2188	-3.4521	-3.0146	-3.4146	-3	-2.8958	-3.4271	178.748	309.314	278.425	256.916	15.748	294.348	229.347	295.620	256.203	313.254	62.914	182.645	316.550	9.790	39.836	311.261	0.00061093	0.00068631	0.0001472	1273	3.3712e-06	6.0381e-06	1342.9	270.4	7.5343e-06	6.8706e-06	329.25	91.641	74.218	21.816	3.6091e-06	28.985	0.00025619	0.00025267	7.0437e-05	1241.8	2.8077e-06	2.759e-06	1313.1	266.45	2.7478e-06	2.7238e-06	323.28	90.706	73.837	21.979	2.6746e-06	29.228	10.636	21.800	287.312	-7.605	128.718	197.377	-7.455	-0.386	131.767	145.453	-0.889	6.693	6.299	12.895	2.129	12.756	-8191	255	
544.621	1	1	0	0	0.14152	0.19266	0.27568	0.33454	0.10943	0.049198	0.10519	0.38429	0.30002	0.090483	0.14516	0.18896	0.23441	0.10896	0.11831	0.10462	-2.5021	-3.1542	-3.2375	-3.0396	-3.2271	-2.9	-2.9708	-3.4354	-2.8563	-3.2229	-3.4896	-2.8833	-3.3438	-3.1833	-2.9354	-3.4854	295.534	229.830	100.780	-6.212	67.554	70.235	-10.513	260.522	260.014	78.479	221.820	9.338	211.290	254.004	302.720	121.828	0.00043397	0.00080279	0.00023606	1269.8	2.1522e-06	7.0683e-06	1342.6	268.46	1.8779e-06	6.1245e-06	329.49	91.541	74.031	21.636	2.839e-06	28.938	0.00023773	0.00023407	6.5726e-05	1237.3	2.5181e-06	2.5061e-06	1308.1	264.79	2.5015e-06	2.4778e-06	321.42	89.923	73.29	21.785	2.4981e-06	29.137	7.374	81.039	80.360	-7.529	65.100	162.334	-7.570	-0.104	327.525	208.435	-0.499	6.393	6.491	13.783	112.896	12.591	-8191	255	
544.742	1	1	0	0	0.14015	0.11603	0.23084	0.26681	0.10641	0.11459	0.23141	0.18269	0.084503	0.16625	0.058348	0.1623	0.18281	0.13054	0.072674	0.10162	-2.5187	-3.0396	-3.1208	-2.9938	-3.1104	-3.0583	-3.0521	-3.4271	-3.0729	-2.975	-3.4146	-2.9479	-3.3354	-3.1979	-2.7687	-3.3812	327.947	47.686	112.405	279.079	160.013	297.938	218.538	289.543	181.501	-2.486	112.853	-17.945	93.229	199.307	32.580	45.747	0.00050197	0.00046645	8.3332e-05	1264.8	3.8009e-06	3.2178e-06	1344.4	267.88	6.5401e-06	2.0921e-06	330.16	91.447	73.975	21.515	6.2923e-06	29.228	0.00022439	0.00022222	6.0675e-05	1233.5	2.4208e-06	2.4378e-06	1305.8	264.05	2.4362e-06	2.4751e-06	321.6	89.915	73.243	21.733	2.4494e-06	29.134	2.093	46.675	61.272	-7.375	119.129	117.856	-7.714	-0.180	132.781	254.165	-0.651	6.504	6.708	13.652	189.668	12.583	-8191	255	
544.813	1	1	0	0	0.097897	0.17342	0.15294	0.27309	0.022392	0.113	0.42576	0.34287	0.06752	0.2471	0.16423	0.11506	0.31492	0.1809	0.11722	0.073255	-2.7396	-2.9875	-3.1271	-3.0042	-3.275	-3.2458	-3.1667	-3.5292	-3.0875	-2.9708	-3.475	-2.7917	-3.2438	-3.2979	-3.0396	-3.1667	170.423	129.024	219.553	288.471	26.019	167.184	294.735	338.832	-6.560	319.640	199.378	340.872	4.998	243.819	202.690	202.450	0.00054947	0.00027035	0.00012816	1266.5	4.0131e-06	1.2211e-06	1350.7	269.97	4.1442e-06	3.7331e-06	328.24	91.14	73.555	21.668	7.4319e-06	29.055	0.00022416	0.00022459	6.1095e-05	1235.6	2.4426e-06	2.3874e-06	1305.4	264.58	2.3793e-06	2.3881e-06	320.54	89.382	72.975	21.771	2.4097e-06	29.067	-6.437	9.823	194.272	-7.369	135.527	281.238	-7.451	-0.411	143.286	55.007	-1.098	6.323	6.562	13.375	108.800	13.050	-8191	255	
544.910	1	1	0	0	0.068791	0.23483	0.041814	0.40216	0.20317	0.26381	0.21891	0.14492	0.20101	0.11046	0.256	0.17209	0.12122	0.13791	0.25959	0.11006	-2.7042	-2.9146	-3.3438	-3.0146	-3.0479	-3.3542	-3.0583	-3.2646	-3.0812	-2.8937	-3.4021	-2.9938	-3.1271	-3.2646	-2.9938	-3.2625	283.214	251.539	247.891	-8.422	53.315	163.213	290.370	276.603	214.060	84.679	261.777	293.175	299.328	106.834	3.922	188.217	0.00067962	0.00025255	5.956e-05	1266	2.8267e-06	6.7094e-06	1345.6	267.96	8.8496e-06	2.3824e-06	329.91	91.447	73.621	21.565	1.7845e-06	28.877	0.00022088	0.00022128	6.1017e-05	1233.9	2.4379e-06	2.3895e-06	1306	263.88	2.4315e-06	2.3797e-06	320.26	89.866	73.01	21.693	2.2516e-06	28.969	341.029	33.143	214.045	-7.489	18.792	107.878	-7.699	-0.454	161.892	35.152	-0.766	6.779	6.444	13.127	67.561	12.946	-8191	255	
545.006	1	1	0	0	0.20605	0.14422	0.21129	0.086493	0.048787	0.08012	0.19875	0.10358	0.11271	0.09737	0.020895	0.20534	0.19611	0.20394	0.12081	0.074626	-2.7562	-2.9646	-3.2833	-3.2167	-2.9313	-3.5187	-2.9646	-3.4604	-3.2188	-2.8583	-3.4208	-3.0687	-3.0646	-3.35	-2.8917	-3.2062	115.514	101.618	137.835	265.620	277.105	256.106	309.029	315.378	137.586	165.962	291.985	-1.898	309.898	43.061	75.724	89.331	0.0005974	0.00057737	0.00018891	1261	3.7881e-06	3.2246e-06	1338.5	267.48	3.0277e-06	3.9295e-06	327.91	90.916	73.788	21.61	4.5547e-06	29.096	0.00021033	0.00020405	5.5973e-05	1228.7	2.226e-06	2.207e-06	1300.5	263.2	2.1747e-06	2.2138e-06	319.49	89.16	73.011	21.647	2.1766e-06	28.995	321.893	294.403	71.526	-7.696	106.588	211.940	-7.534	-0.397	162.068	95.012	-0.647	5.963	6.522	12.916	163.649	12.405	-8191	255	
545.126	1	1	0	0	0.059218	0.2541	0.047576	0.36018	0.18851	0.18057	0.47771	0.16544	0.10696	0.20116	0.24105	0.1184	0.067526	0.11429	0.06648	0.11558	-2.7354	-2.7208	-3.3396	-3.3083	-2.8271	-3.3979	-3.0604	-3.2083	-3.2729	-2.9688	-3.45	-3.2125	-2.825	-3.4917	-2.8979	-2.9667	16.173	283.275	266.966	330.181	92.560	290.894	309.415	44.753	18.751	128.092	218.839	309.892	187.772	193.634	326.048	196.617	0.00059762	0.00048784	0.00013707	1258.9	6.1926e-06	2.8082e-06	1338.6	268.29	1.7129e-06	6.1521e-06	326.58	90.934	73.815	21.537	2.3841e-06	29.071	0.00020572	0.00020134	5.5805e-05	1227.3	2.2664e-06	2.2726e-06	1298.8	262.9	2.3551e-06	2.3339e-06	319.18	89.388	72.959	21.688	2.367e-06	29.099	340.841	338.908	20.711	-7.519	62.935	253.128	-7.429	-0.087	154.563	111.407	-0.231	6.237	6.644	13.179	66.997	12.559	-8191	255	
545.223	1	1	0	0	0.11786	0.19751	0.1301	0.18496	0.14166	0.061803	0.23764	0.23214	0.16871	0.11933	0.24972	0.093736	0.25994	0.22469	0.065775	0.1722	-2.9708	-2.8542	-3.2771	-3.0687	-2.9125	-3.2792	-3.1417	-3.1063	-3.2917	-3.0604	-3.3708	-3.1937	-2.8729	-3.3063	-3.2208	-2.9604	145.485	165.932	67.729	341.533	108.861	338.287	238.761	269.663	71.932	151.793	262.915	81.564	-11.505	89.798	265.237	168.140	0.00052499	0.00032582	0.00024082	1256.4	3.6049e-06	3.3905e-06	1341.9	267.27	1.9922e-06	4.0036e-06	327.29	91.056	73.825	21.526	2.1483e-06	28.981	0.00022145	0.00021856	5.9989e-05	1229	2.404e-06	2.3516e-06	1301.6	262.92	2.3997e-06	2.3751e-06	319.88	89.601	72.912	21.742	2.4554e-06	29.119	324.126	48.740	30.535	-7.569	99.137	50.197	-7.629	-0.227	192.915	159.496	-0.789	5.925	6.783	13.307	132.274	12.599	-8191	255	
545.317	1	1	0	0	0.091543	0.23042	0.10788	0.28166	0.048925	0.21073	0.25274	0.11297	0.01591	0.29987	0.18485	0.26947	0.36226	0.3637	0.070218	0.39942	-2.8063	-2.8812	-3.0458	-3.3438	-2.8771	-3.2229	-3.1667	-2.9729	-3.3229	-2.8521	-3.2812	-3.1667	-2.8333	-3.3438	-3.0354	-2.9625	209.010	285.648	144.517	297.930	99.999	216.974	279.900	315.276	152.985	307.383	2.477	8.114	17.677	278.912	6.669	242.071	0.00051588	0.00030892	7.8001e-05	1261.2	1.1055e-06	2.4433e-06	1333	266.96	5.9138e-06	1.3365e-06	325.99	91.617	73.735	21.577	7.3984e-07	28.969	0.00022929	0.00022484	6.2989e-05	1230.4	2.5176e-06	2.4978e-06	1299.9	263.51	2.5091e-06	2.4973e-06	318.98	89.726	73.052	21.702	2.4421e-06	29.017	-1.953	20.829	339.807	-7.732	106.201	151.676	-7.229	-0.215	151.606	196.262	-0.452	5.975	6.815	13.502	-5.757	12.934	-8191	255	
545.415	1	1	0	0	0.19672	0.22503	0.31815	0.27563	0.060503	0.20593	0.36447	0.19491	0.094929	0.11708	0.077637	0.2607	0.056815	0.18253	0.12242	0.13441	-2.8625	-2.925	-3.1542	-3.3063	-2.8479	-3.2062	-3.4604	-3.1542	-3.4146	-2.9646	-3.0833	-3.1188	-3.0438	-3.1437	-3.3	-2.9521	221.276	278.051	42.790	-13.365	13.260	274.355	269.573	304.652	336.949	250.077	248.645	-7.788	339.328	57.018	312.977	174.567	0.00061138	0.00021363	0.00016573	1262.8	5.4706e-06	4.0709e-06	1339.4	266.64	5.7761e-06	4.6545e-06	327.75	91.563	73.383	21.462	4.17e-06	29.047	0.00022679	0.00022534	6.2216e-05	1230.5	2.4696e-06	2.4595e-06	1302.9	263.24	2.4882e-06	2.4697e-06	320.76	89.935	72.924	21.701	2.5169e-06	29.154	325.121	107.893	29.334	-7.682	102.141	137.587	-7.467	-0.233	121.197	34.995	-0.140	6.642	6.918	13.336	165.910	13.034	-8191	255	
545.509	1	1	0	0	0.14866	0.15752	0.15306	0.21398	0.20633	0.24501	0.17546	0.13988	0.096278	0.29132	0.21377	0.068784	0.20081	0.031187	0.25168	0.11855	-2.7875	-3.025	-3.0604	-3.4979	-2.8271	-3.1229	-3.35	-2.9604	-3.3187	-3.0625	-3.0354	-3.3146	-3.0583	-3.1188	-3.2062	-2.8583	53.171	153.722	153.837	321.581	191.276	299.383	289.986	331.132	195.206	36.374	316.975	93.171	-12.555	313.116	160.516	303.565	0.00092093	0.00029972	0.00024439	1262.4	2.9813e-06	4.8702e-06	1335.1	266.25	7.5499e-06	4.2203e-06	328.44	91.58	73.238	21.531	4.3308e-06	28.827	0.00023373	0.00023431	6.56e-05	1230.8	2.5866e-06	2.5897e-06	1303.3	262.91	2.6371e-06	2.6629e-06	320.75	90.104	72.975	21.763	2.6641e-06	29.109	325.497	54.380	73.721	-7.584	129.214	248.255	-7.546	-0.093	147.710	175.043	-0.577	6.537	6.618	13.262	111.208	12.713	-8191	255	
545.605	1	1	0	0	0.26394	0.090315	0.12567	0.22457	0.11192	0.14722	0.28109	0.11247	0.082846	0.15162	0.11548	0.1983	0.15081	0.07578	0.12643	0.2145	-2.7646	-3.0375	-2.9	-3.4021	-2.9437	-3.1458	-3.3708	-2.9938	-3.3042	-3.1208	-2.9437	-3.3	-3.0438	-3.2438	-3.3458	-2.9521	203.358	210.172	52.796	340.762	275.110	34.530	189.325	199.768	69.146	163.241	284.610	295.924	-3.594	177.365	153.278	34.224	0.00063244	0.00028025	8.1135e-05	1257.4	4.411e-06	1.504e-06	1332.5	267.16	8.2638e-06	6.1309e-06	327.56	90.443	73.306	21.52	1.6738e-06	28.804	0.00025251	0.00024626	6.9285e-05	1229.9	2.7187e-06	2.7217e-06	1299.8	263.47	2.704e-06	2.6806e-06	320.17	89.718	73.017	21.769	2.6245e-06	29.12	-10.300	26.144	55.888	-7.630	263.164	160.049	-7.593	-0.250	127.622	148.182	-0.495	6.426	6.572	13.366	104.407	12.710	-8191	255	
545.726	1	1	0	0	0.10389	0.014433	0.26223	0.065866	0.41251	0.12966	0.2741	0.061634	0.045751	0.17158	0.27904	0.088685	0.24452	0.18802	0.1663	0.23774	-2.7687	-3.0708	-2.6292	-3.5021	-3.0458	-3.0563	-3.4208	-3.0125	-3.2396	-3.1958	-2.7771	-3.4208	-2.9792	-3.0625	-3.2687	-2.9062	191.876	100.861	169.451	315.138	156.619	289.091	246.996	5.852	283.580	4.161	337.811	330.329	299.854	288.196	154.035	306.734	0.00072317	0.0002991	6.6064e-05	1260.4	4.4159e-06	6.5358e-06	1333.6	266.8	7.5269e-06	2.3989e-06	327.18	91.505	73.26	21.503	8.1752e-06	28.88	0.00024374	0.00024024	6.7794e-05	1228.6	2.694e-06	2.7276e-06	1299.8	263.67	2.715e-06	2.7017e-06	321.15	89.862	73.024	21.795	2.6848e-06	29.122	-8.910	61.550	116.192	-7.340	116.414	163.019	-7.466	-0.180	-2.319	142.707	-0.501	6.482	6.587	13.114	134.872	12.783	-8191	255	
545.822	1	1	0	0	0.34594	0.17692	0.12723	0.31103	0.041531	0.049835	0.16317	0.067593	0.2002	0.19502	0.077476	0.24994	0.17793	0.17474	0.11366	0.16642	-2.7417	-3.2396	-2.875	-3.4062	-2.9896	-2.9688	-3.6208	-2.9292	-3.2083	-3.2333	-2.9313	-3.3542	-3.2583	-2.8417	-3.4833	-3.0271	319.657	155.983	98.175	305.135	138.154	34.138	296.769	301.209	212.345	166.979	304.559	198.621	338.917	63.743	298.716	165.875	0.00047973	0.00034089	0.00013536	1258.3	2.8887e-06	3.9942e-06	1332.6	266.91	2.3561e-06	5.1252e-06	326.83	91.194	73.172	21.425	2.1383e-06	28.907	0.00024884	0.00024686	6.8874e-05	1228.4	2.7098e-06	2.6857e-06	1299.6	263.34	2.7717e-06	2.8006e-06	319.53	89.852	73.085	21.756	2.808e-06	29.181	338.953	49.146	17.097	-7.392	273.596	49.886	-7.334	-0.129	90.244	81.665	-0.602	6.125	6.490	13.357	18.901	12.843	-8191	255	
545.918	1	1	0	0	0.14712	0.095687	0.042084	0.31471	0.098149	0.13363	0.14021	0.30151	0.18762	0.18799	0.2487	0.065938	0.094222	0.17271	0.29982	0.11285	-2.6979	-3.275	-2.9521	-3.4396	-3.1354	-2.7625	-3.4562	-3.0417	-2.9271	-3.3542	-2.8417	-3.2583	-3.175	-2.8521	-3.45	-2.9813	69.391	40.330	24.268	9.425	203.850	13.416	233.404	271.924	139.513	298.909	239.124	16.674	85.766	207.447	310.123	185.663	0.00069767	0.00057033	7.8542e-06	1255	4.6896e-07	1.2139e-06	1331.5	265.58	4.2971e-06	1.9969e-06	327.96	90.875	73.147	21.598	2.5147e-06	28.763	0.0002624	0.00025681	7.1209e-05	1228.2	2.8559e-06	2.8403e-06	1298.9	262.97	2.8555e-06	2.8378e-06	320.58	89.999	72.953	21.754	2.7988e-06	29.135	9.996	266.501	2.980	-7.565	105.690	234.692	-7.415	-0.213	202.043	54.178	-0.302	6.527	6.565	13.626	306.951	12.810	-8191	255	
546.014	1	1	0	0	0.089147	0.1454	0.17886	0.41051	0.13004	0.21216	0.31054	0.24404	0.1932	0.050734	0.092211	0.21558	0.26614	0.15307	0.21314	0.045045	-2.7188	-3.3104	-2.7458	-3.2375	-3.2646	-2.875	-3.5229	-3.2042	-2.9875	-3.275	-3.0042	-3.3104	-3.3417	-2.8792	-3.45	-3.0479	-3.535	271.823	192.736	305.348	167.776	41.938	270.955	325.992	300.952	224.289	49.949	274.909	284.416	70.850	216.639	179.608	0.00084126	0.00037475	9.5747e-05	1248.5	1.4536e-06	2.5499e-06	1323.7	266.83	6.5166e-06	7.4153e-06	326.85	90.621	73.315	21.342	2.7066e-06	28.824	0.00026074	0.00025894	7.1387e-05	1223.7	2.8542e-06	2.8019e-06	1297.2	263.42	2.8638e-06	2.8142e-06	320.44	89.703	72.947	21.737	2.7847e-06	29.106	335.894	-2.082	97.742	-7.446	5.047	65.692	-7.472	-0.210	92.025	132.101	-0.397	6.395	6.855	13.404	206.853	12.815	-8191	255	
546.111	1	1	0	0	0.27378	0.14885	0.14463	0.17301	0.20135	0.2451	0.2755	0.10022	0.20563	0.36121	0.35974	0.21855	0.22112	0.20279	0.25982	0.0075857	-2.4479	-3.3187	-2.8396	-3.2521	-3.25	-2.975	-3.3937	-3.2083	-2.8604	-3.2771	-3.1	-3.2646	-3.2687	-2.9708	-3.4062	-3.2062	213.172	-14.156	20.397	-1.353	187.859	-1.122	297.499	177.871	337.624	220.797	323.702	236.140	92.043	42.364	141.337	330.793	0.00061824	0.00034877	7.7942e-05	1250	5.1615e-06	2.6533e-06	1330.3	266.77	5.0561e-06	1.2853e-06	326.09	91.365	73.296	21.354	5.0315e-06	28.865	0.0002579	0.0002492	6.8975e-05	1225	2.732e-06	2.7197e-06	1298.1	262.92	2.672e-06	2.6443e-06	319.26	89.709	72.92	21.66	2.6568e-06	29.052	340.747	275.921	173.638	-7.563	109.955	238.800	-7.446	-0.373	123.912	48.958	-0.594	6.312	6.837	13.373	226.356	12.819	-8191	255	
546.207	1	1	0	0	0.18688	0.20104	0.24581	0.23699	0.12393	0.24715	0.046403	0.24471	0.043848	0.29999	0.21797	0.25393	0.3645	0.13433	0.19825	0.11682	-2.6021	-3.1833	-2.9229	-3.05	-3.2292	-2.9813	-3.3021	-3.3208	-2.7229	-3.3792	-3.2542	-3.0708	-3.4375	-3.0438	-3.2458	-3.2979	163.285	30.490	280.857	309.059	154.332	276.844	265.866	70.123	196.232	201.309	16.501	318.336	314.674	10.336	190.057	321.084	0.00040663	0.00015016	4.6549e-05	1259.3	3.3855e-06	5.4544e-06	1327.4	266.08	6.5286e-06	2.2023e-06	326.7	90.939	73.42	21.404	4.193e-06	28.674	0.00024716	0.00024348	6.8293e-05	1227.1	2.697e-06	2.7043e-06	1295.6	262.65	2.7109e-06	2.7195e-06	320.34	89.646	72.996	21.71	2.7229e-06	29.13	-17.064	299.678	100.416	-7.526	224.805	156.619	-7.421	-0.275	236.114	110.078	-0.555	6.396	6.635	13.430	142.683	12.732	-8191	255	
546.303	1	1	0	0	0.22224	0.025529	0.2718	0.25886	0.053337	0.2423	0.24156	0.13048	0.078886	0.043035	0.20859	0.072762	0.22402	0.16144	0.29611	0.051301	-2.3604	-3.1542	-2.9604	-3.1854	-3.3042	-2.9979	-3.3854	-3.4	-2.675	-3.3354	-3.1479	-3.1333	-3.4479	-2.8625	-3.2354	-3.2521	317.456	213.961	147.388	-6.240	297.872	-0.441	286.033	331.679	135.309	48.469	-17.823	169.985	261.160	43.846	155.217	327.378	0.00064907	0.00015137	0.00010194	1252.3	2.8457e-06	4.2046e-06	1328.9	267.01	5.9366e-06	7.5961e-07	327.49	90.234	73.059	21.535	4.0263e-06	29.033	0.00025302	0.00025437	7.1353e-05	1226.5	2.7855e-06	2.814e-06	1299.1	263.19	2.8412e-06	2.7991e-06	320.52	89.727	72.913	21.759	2.8084e-06	29.187	-17.390	113.804	118.550	-7.694	158.996	177.994	-7.464	-0.047	167.594	218.253	-0.570	6.804	6.804	13.271	162.561	12.853	-8191	255	
546.422	1	1	0	0	0.058736	0.22586	0.068258	0.32258	0.084921	0.27375	0.21181	0.12187	0.099628	0.20442	0.28823	0.2164	0.021819	0.2439	0.092568	0.081433	-2.4833	-3.3833	-2.9854	-3.0833	-3.3042	-3.1396	-3.325	-3.3458	-2.8063	-3.3104	-3.4646	-2.8396	-3.4646	-3.0687	-3.1042	-3.425	322.427	205.542	322.577	276.505	179.060	322.235	269.427	263.290	89.585	-2.891	24.631	107.262	151.317	57.086	71.038	332.030	0.00049297	0.00059227	0.00010295	1257.4	1.925e-06	5.0009e-06	1329.1	264.98	1.1848e-05	3.3549e-06	328.41	90.865	73.02	21.444	1.7174e-06	28.945	0.00025294	0.000252	6.9834e-05	1226	2.7425e-06	2.7267e-06	1296.3	262.11	2.7033e-06	2.7337e-06	320.49	89.903	72.796	21.762	2.7844e-06	29.156	321.877	25.768	62.688	-7.714	126.644	147.838	-7.351	-0.132	106.361	91.856	-0.268	6.113	6.821	13.821	28.010	12.729	-8191	255	
546.518	1	1	0	0	0.16608	0.24287	0.14771	0.14266	0.32428	0.046568	0.30099	0.10178	0.10905	0.15646	0.1206	0.19245	0.28099	0.15251	0.246	0.067487	-2.6188	-3.0875	-3.3521	-3.0833	-3.4688	-2.9208	-3.1458	-3.5021	-2.8792	-3.1875	-3.4125	-2.975	-3.4125	-3.0312	-2.9938	-3.3083	245.605	105.403	263.447	248.145	136.978	204.825	304.065	246.237	317.294	106.393	268.430	3.391	16.075	43.942	234.694	39.393	0.0005895	0.00071033	4.1937e-05	1256.8	7.0711e-06	3.9664e-06	1331.1	267.32	1.7482e-06	5.5702e-06	326.93	90.679	73.117	21.569	4.0183e-06	28.995	0.00025269	0.0002499	6.9818e-05	1228.4	2.8008e-06	2.8218e-06	1297.4	263.33	2.8137e-06	2.8023e-06	319.71	89.911	73.09	21.799	2.8921e-06	29.288	328.849	-4.384	107.931	-7.662	102.597	145.882	-7.537	-0.385	319.905	171.031	-0.059	5.922	6.942	13.286	95.069	12.441	-8191	255	
546.614	1	1	0	0	0.21004	0.154	0.10391	0.091808	0.074919	0.15473	0.15954	0.33796	0.16833	0.22584	0.10847	0.18126	0.12431	0.20814	0.16639	0.20745	-2.6792	-3.1417	-3.2896	-2.9667	-3.2812	-3.1958	-2.95	-3.5	-3.1292	-3.1021	-3.4646	-3.0229	-3.3083	-3.1188	-2.8542	-3.4208	22.453	155.464	205.725	226.716	308.836	98.394	288.565	2.209	104.414	165.437	24.798	252.263	-7.761	247.641	-10.616	-16.321	0.00070434	0.00060466	0.00010627	1258.9	8.3163e-07	6.4151e-06	1330.8	264.79	3.7623e-07	7.361e-06	325.16	91.031	73.24	21.538	4.3777e-06	28.631	0.00026337	0.00026383	7.3344e-05	1228.3	2.8764e-06	2.8309e-06	1299.7	262.3	2.8581e-06	2.8571e-06	319.85	89.922	72.947	21.787	2.8482e-06	29.113	335.048	1.735	85.165	-7.352	128.645	208.508	-7.378	-0.101	220.602	187.896	-0.320	6.288	6.406	13.292	113.579	12.811	-8191	255	
546.688	1	1	0	0	0.10095	0.23462	0.092296	0.36276	0.14858	0.1571	0.24167	0.21252	0.21755	0.16193	0.2115	0.13404	0.19567	0.19519	0.10959	0.047918	-2.5229	-2.9313	-3.2687	-3.0271	-3.2833	-3.3312	-2.9792	-3.4729	-3.025	-2.9688	-3.4229	-3.125	-3.2687	-3.2771	-3.0792	-3.2708	-5.301	137.796	114.900	311.931	153.068	128.771	291.489	321.217	64.436	49.331	290.964	16.919	341.398	53.577	276.594	330.025	0.00061188	0.00061424	0.00014751	1255.2	4.4221e-06	5.3577e-06	1330	265.18	1.1977e-06	2.7069e-06	325.58	91.227	73.06	21.545	3.0275e-06	29.031	0.00025965	0.00025673	7.2392e-05	1226.9	2.8612e-06	2.8579e-06	1298.9	262.73	2.8324e-06	2.8928e-06	319.79	90.019	73.094	21.748	2.8491e-06	29.197	317.628	68.011	111.161	-7.512	128.445	144.483	-7.397	-0.068	-3.992	151.296	-0.099	6.137	6.494	13.320	159.148	13.179	-8191	255	
546.806	1	1	0	0	0.21262	0.15156	0.13216	0.32891	0.12347	0.18365	0.25037	0.18158	0.082068	0.16497	0.14947	0.23196	0.12785	0.20085	0.46011	0.13044	-2.8333	-3.0229	-3.5	-3.1042	-2.9854	-3.3229	-3.2687	-3.5583	-3.0062	-2.9813	-3.5458	-3.1479	-3.3604	-3.1896	-2.8792	-3.3563	112.623	19.424	25.478	324.867	57.793	215.184	234.469	300.693	131.585	75.871	315.241	304.893	251.885	299.736	139.467	299.887	0.00056081	0.00012949	6.5019e-05	1255.7	4.818e-06	3.7714e-06	1326.7	266.2	1.5665e-06	4.5798e-06	327.13	90.436	73.495	21.387	5.0973e-06	28.909	0.00026697	0.00026116	7.2947e-05	1226.1	2.9328e-06	2.8988e-06	1297.1	262.99	2.9105e-06	2.8965e-06	320.24	90.025	73.25	21.773	2.8506e-06	29.249	-14.570	117.809	125.842	-7.514	77.470	108.613	-7.434	-0.303	117.181	241.696	-0.601	6.554	6.473	13.438	263.833	13.080	-8191	255	
546.903	1	1	0	0	0.15606	0.20667	0.076997	0.14726	0.21678	0.26965	0.29094	0.098608	0.059837	0.091812	0.17593	0.35037	0.2238	0.19561	0.19813	0.11732	-2.6917	-2.9083	-3.4708	-3.15	-3.0875	-3.3063	-2.9271	-3.3125	-3.1479	-2.8104	-3.4854	-3.0125	-3.0625	-3.325	-2.9792	-3.0854	181.397	6.732	23.185	213.938	331.302	99.931	312.357	292.662	9.527	72.848	213.736	-9.673	2.800	248.756	227.309	-2.256	0.00040634	0.00037067	0.00011611	1254.9	7.8462e-06	8.0633e-06	1326.9	264.86	6.5497e-06	4.5043e-06	326.99	91.053	72.902	21.478	7.1675e-07	28.854	0.00026364	0.0002611	7.2496e-05	1227.7	2.8534e-06	2.8488e-06	1298.5	262.81	2.8678e-06	2.8492e-06	320.8	90.071	73.101	21.808	2.8392e-06	29.169	5.241	337.464	315.457	-7.494	93.865	183.998	-7.529	-0.221	155.176	179.047	-0.631	6.153	6.967	13.424	48.047	12.731	-8191	255	
546.999	1	1	0	0	0.2174	0.22588	0.17174	0.12881	0.16356	0.029811	0.12178	0.31638	0.24377	0.073602	0.16302	0.34426	0.20144	0.081712	0.2856	0.18617	-2.7208	-2.825	-3.2958	-3.2812	-2.9875	-3.1792	-3.2167	-3.3458	-3.2708	-2.8792	-3.5167	-2.9292	-3.0354	-3.3979	-2.7792	-3.125	32.867	242.233	85.477	269.459	51.814	-9.359	15.800	258.021	329.224	107.294	136.661	-17.713	329.238	-2.734	70.698	184.903	0.00073557	0.00034153	0.00012317	1253.9	3.9303e-06	5.5946e-06	1325.7	265.41	7.3949e-06	1.1336e-06	325.83	90.341	73.022	21.304	1.5347e-06	29.142	0.00026342	0.00026198	7.2804e-05	1225.9	2.8779e-06	2.8626e-06	1296.6	262.22	2.8384e-06	2.849e-06	320.07	89.867	73	21.728	2.8959e-06	29.298	-17.420	109.828	83.673	-7.511	56.297	164.529	-7.522	-0.307	185.687	274.723	-0.371	6.407	6.800	13.072	32.810	12.895	-8191	255	
547.095	1	1	0	0	0.1683	0.24651	0.14673	0.34611	0.20149	0.069553	0.28291	0.34285	0.14588	0.29689	0.16797	0.2836	0.19113	0.2962	0.14715	0.28289	-2.9125	-2.8625	-3.2979	-3.0708	-3.0542	-3.475	-3.1375	-3.0417	-3.1604	-2.7417	-3.1813	-3.1729	-3.0021	-3.45	-2.8833	-2.9688	43.964	90.723	176.256	309.661	-8.677	128.719	289.238	308.219	28.249	136.691	192.054	-15.152	337.903	272.276	-0.264	10.737	0.00051776	0.00017876	0.00014032	1259	2.2284e-06	2.5234e-06	1333.1	265.59	2.7252e-06	8.8835e-06	326.28	90.095	72.921	21.402	3.3488e-06	28.937	0.00026737	0.00026468	7.3598e-05	1228	2.9096e-06	2.8719e-06	1298.1	263.11	2.8922e-06	2.8817e-06	319.69	89.821	72.968	21.797	2.8402e-06	29.212	311.296	144.637	42.162	-7.731	315.265	110.409	-7.610	-0.230	79.936	138.423	-0.466	6.569	6.764	13.247	88.698	13.094	-8191	255	
547.215	1	1	0	0	0.30141	0.17476	0.073897	0.25696	0.19348	0.13088	0.13596	0.17874	0.24451	0.25025	0.33905	0.28321	0.15345	0.3122	0.018046	0.23007	-3.0187	-2.7729	-3.1562	-3.3354	-2.8771	-3.4167	-3.0479	-3.2167	-3.2146	-3.1271	-3.1937	-3.1271	-2.8854	-3.4542	-3.25	-3.0042	53.799	230.913	263.607	289.851	250.792	10.359	226.806	17.090	247.173	82.578	247.160	266.705	16.092	248.225	196.098	159.548	0.00056902	0.00062812	5.7245e-05	1253.7	3.0145e-06	3.1976e-06	1330.3	266.71	9.5345e-07	7.7219e-06	324.8	90.08	73.582	21.576	5.0585e-06	28.767	0.00026132	0.00025572	7.2358e-05	1227.6	2.8268e-06	2.8208e-06	1300.2	263.2	2.8562e-06	2.8518e-06	319.74	90.097	73.241	21.85	2.8835e-06	29.18	316.518	24.730	200.199	-7.561	224.589	293.795	-7.461	-0.221	60.667	147.988	-0.737	6.280	6.648	13.391	63.271	12.610	-8191	255	
547.310	1	1	0	0	0.24958	0.20665	0.25637	0.2913	0.24882	0.24977	0.28221	0.15394	0.14938	0.1857	0.064402	0.15187	0.036058	0.086084	0.040868	0.20114	-3.0083	-2.9417	-3.1125	-3.5083	-2.875	-3.3146	-3.1437	-2.9813	-3.4979	-2.8063	-3.1479	-3.3771	-3.0292	-3.3042	-3.1188	-2.9542	90.528	122.869	304.991	309.889	84.044	251.041	286.551	267.705	264.323	3.985	-15.128	328.697	63.377	232.092	195.863	-13.068	0.00060459	0.00030492	9.8149e-05	1254.4	6.058e-06	2.5559e-06	1327.6	267.74	5.4386e-06	5.6204e-06	324.39	90.339	73.012	21.423	5.137e-06	28.985	0.00025898	0.00026299	7.2575e-05	1226.7	2.871e-06	2.8629e-06	1299.4	263.54	2.8803e-06	2.9005e-06	320	90.033	73.063	21.797	2.8911e-06	29.267	-11.681	52.568	111.333	-7.557	145.231	314.194	-7.502	-0.186	227.953	192.762	-0.875	6.200	6.911	13.551	142.277	12.775	-8191	255	
547.408	1	1	0	0	0.081664	0.16748	0.16478	0.27861	0.1341	0.18952	0.27604	0.24365	0.055613	0.16431	0.16069	0.21779	0.16142	0.24835	0.25613	0.069114	-3.1146	-2.8937	-3.0167	-3.5125	-2.9938	-3.3438	-3.2146	-3.0958	-3.4458	-3.2604	-3.1813	-3.3646	-3.0938	-3.3438	-3.1292	-3.0604	192.541	-17.413	-2.475	8.821	70.443	153.901	207.965	249.339	309.545	8.464	320.956	53.812	28.582	340.834	150.343	262.975	0.0004994	0.00059615	8.9264e-05	1252.3	6.319e-06	4.1938e-06	1331.7	265.35	1.0507e-05	8.0233e-07	326.07	90.28	73.35	21.402	7.1083e-06	29.077	0.00026877	0.00026748	7.4282e-05	1225.3	2.916e-06	2.8977e-06	1298.3	263.08	2.9159e-06	2.9061e-06	320.81	89.731	73.146	21.823	2.9143e-06	29.306	331.701	3.807	10.527	-7.400	326.566	207.396	-7.493	-0.149	111.406	193.467	-0.498	6.780	6.646	13.747	66.782	12.427	-8191	255	
547.502	1	1	0	0	0.2779	0.05247	0.10364	0.10092	0.083822	0.048076	0.093928	0.10795	0.21814	0.19853	0.15116	0.12449	0.020499	0.011194	0.13278	0.22341	-2.9042	-2.9354	-3.0438	-3.4562	-2.9354	-3.075	-3.3958	-2.9646	-3.3042	-3.2188	-2.9333	-3.3771	-3.0479	-3.1917	-3.1917	-2.7979	201.759	259.502	241.094	251.616	269.367	183.842	215.275	263.413	41.335	16.310	46.334	278.441	65.597	140.519	99.599	243.342	0.00062771	7.6064e-05	0.00012963	1250.7	1.0612e-05	5.7909e-07	1321.7	266.36	9.5886e-07	4.3021e-06	324.69	90.258	73.533	21.597	3.511e-06	29.091	0.00026604	0.00026338	7.3803e-05	1224.6	2.8932e-06	2.9162e-06	1296.6	262.95	2.89e-06	2.9138e-06	320.53	90.121	73.212	21.871	2.9632e-06	29.342	340.078	21.541	84.923	-7.241	71.598	21.716	-7.397	-0.163	-6.990	76.054	-0.715	6.453	6.661	13.200	260.836	12.762	-8191	255	
547.598	1	1	0	0	0.11949	0.30612	0.19077	0.09339	0.125	0.11436	0.18288	0.072722	0.078587	0.039247	0.13123	0.25643	0.19472	0.083434	0.14048	0.20396	-2.9562	-3.2375	-2.8312	-3.3312	-3.0375	-3.2104	-3.3583	-3.1396	-3.3042	-3.0271	-3.0312	-3.5354	-2.9708	-3.0458	-3.4375	-2.8229	0.261	339.582	-2.202	-6.645	256.285	323.243	329.141	168.358	105.353	115.199	-3.819	24.831	12.496	-13.086	198.331	152.143	0.00064144	0.00045564	0.00020071	1251	1.1983e-06	2.8134e-06	1332	266.04	5.3564e-06	2.7162e-06	325.12	90.435	73.263	21.342	5.9082e-06	28.834	0.00027301	0.00027017	7.46e-05	1225.8	2.9647e-06	2.9024e-06	1298.7	263.47	2.9201e-06	2.8949e-06	319.83	89.956	73.003	21.812	2.8276e-06	29.295	-0.648	3.695	107.327	-7.594	0.667	153.451	-7.487	-0.231	90.860	171.710	-0.428	6.610	6.774	13.451	133.546	12.667	-8191	255	
547.694	1	1	0	0	0.28432	0.26263	0.19938	0.1919	0.10904	0.13901	0.19533	0.10158	0.096562	0.18492	0.091107	0.059389	0.12127	0.11545	0.088264	0.36526	-2.8604	-3.0896	-2.8667	-3.5	-2.9396	-3.1958	-3.4917	-2.8417	-3.1833	-3.2417	-2.9979	-3.4208	-3.1458	-3.2583	-3.3125	-2.9771	11.589	197.211	157.935	330.538	209.398	310.063	285.063	309.641	199.673	57.507	304.190	172.063	264.216	269.591	116.503	15.671	0.00074148	0.00049166	0.00017125	1249.8	5.9446e-07	5.1433e-06	1337.3	266.68	7.7578e-06	4.4444e-06	325.13	90.515	73.013	21.674	4.3309e-06	28.854	0.00026521	0.00025967	7.2863e-05	1223.6	2.8884e-06	2.8124e-06	1299.5	263.69	2.8473e-06	2.8673e-06	320.21	89.692	73.135	21.887	2.8734e-06	29.203	331.964	65.941	111.295	-7.597	108.741	197.442	-7.515	-0.086	120.558	143.465	-0.442	6.337	6.808	13.280	111.035	12.762	-8191	255	
547.815	1	1	0	0	0.11707	0.16614	0.048628	0.30218	0.12556	0.089296	0.31397	0.045116	0.2647	0.26083	0.19813	0.15923	0.065262	0.126	0.23368	0.037958	-2.8292	-3.1813	-2.8646	-3.5625	-3.225	-3.2	-3.5542	-3.0625	-3.1167	-3.3625	-2.8792	-3.1917	-3.2271	-3.0417	-3.3083	-2.9104	158.499	-0.960	118.702	282.256	256.641	254.005	-17.269	338.687	43.743	116.316	305.713	-9.306	167.764	88.612	139.323	266.085	0.00044426	0.00049173	8.3072e-05	1254.9	4.2624e-06	4.3203e-06	1327	266.46	3.9769e-06	3.7924e-06	326.07	90.814	73.162	21.493	5.0535e-06	28.684	0.00026258	0.000261	7.2162e-05	1226.6	2.9176e-06	2.8549e-06	1298	263.04	2.9204e-06	2.8906e-06	320.04	89.963	72.984	21.823	2.902e-06	29.222	-10.947	109.329	79.148	-7.338	5.336	117.721	-7.366	-0.275	61.476	55.244	-0.389	6.466	6.533	13.427	188.851	12.678	-8191	255	
547.911	1	1	0	0	0.10412	0.1463	0.32992	0.26332	0.22181	0.048625	0.093102	0.1976	0.18709	0.063182	0.16528	0.135	0.065909	0.12136	0.099878	0.11875	-2.6813	-3.3312	-2.8312	-3.5375	-3.1021	-2.9313	-3.5375	-3.0958	-2.9167	-3.2042	-3.0583	-3.3688	-3.3625	-3.0542	-3.3312	-3.1521	81.076	142.748	273.226	290.600	146.583	197.214	104.626	4.771	79.831	125.870	223.204	276.475	295.509	22.330	288.828	30.899	0.00059099	0.00048521	8.9558e-05	1249.4	6.5252e-06	7.1035e-06	1333.9	265.41	7.1752e-07	4.0104e-06	328.02	90.868	73.416	21.514	1.0755e-06	28.965	0.00026771	0.00026368	7.332e-05	1226.2	2.9004e-06	2.8553e-06	1299.6	262.91	2.872e-06	2.8466e-06	320.51	90.144	73.254	21.788	2.8893e-06	29.294	-0.730	60.181	-7.275	-7.493	124.523	155.926	-7.585	-0.188	228.240	154.448	-0.397	6.536	6.701	13.378	98.653	12.906	-8191	255	
547.983	1	1	0	0	0.051818	0.22407	0.031653	0.23719	0.13532	0.05999	0.11092	0.13068	0.043801	0.33598	0.23287	0.23922	0.37179	0.20483	0.19712	0.1514	-2.4813	-3.1562	-2.7542	-3.35	-3.1604	-2.6625	-3.6021	-3.1667	-2.8583	-3.3458	-2.9437	-3.0396	-3.375	-2.7042	-3.2167	-3.0854	7.928	316.052	236.919	279.468	142.087	121.550	278.404	8.802	93.948	253.451	-18.337	316.542	301.145	173.645	84.155	166.967	0.00059311	0.0004461	3.8895e-05	1252.8	6.0694e-06	2.2133e-06	1332.8	267.12	1.0575e-05	1.1207e-05	324.7	90.407	73.222	21.526	8.9103e-07	28.81	0.00026933	0.00026463	7.4848e-05	1226.8	2.9533e-06	2.949e-06	1298.8	263.08	2.9604e-06	2.961e-06	319.92	90.032	73.207	21.894	2.9931e-06	29.219	-15.523	62.710	125.689	-7.384	136.692	166.986	-7.592	-0.411	96.278	180.140	-0.505	6.394	6.527	13.316	15.256	12.958	-8191	255	
548.079	1	1	0	0	0.08368	0.26908	0.30451	0.11384	0.11353	0.12633	0.14058	0.077023	0.20151	0.19724	0.2011	0.090611	0.19657	0.25302	0.16129	0.13318	-2.4188	-3.3146	-3.075	-3.2375	-3.3458	-2.9313	-3.4604	-3.1583	-2.625	-3.3875	-3.1354	-3.2646	-3.3854	-2.7062	-3.2792	-3.1312	279.609	111.844	295.318	332.453	300.257	150.257	325.698	212.284	142.198	226.864	259.072	158.057	85.924	285.086	75.985	-13.240	0.00066378	0.00054072	5.456e-05	1256.7	6.6399e-06	3.2178e-06	1328.3	265.05	8.5546e-06	1.6304e-06	326.13	90.361	73.29	21.503	3.1463e-06	29.19	0.00027283	0.00026713	7.488e-05	1228.1	2.9278e-06	2.9603e-06	1299.6	263.22	2.9533e-06	2.9509e-06	320.57	89.993	73.304	21.874	2.9973e-06	29.377	-10.356	-11.655	139.260	-7.568	221.268	160.032	-7.379	-0.474	22.226	257.128	-0.797	6.223	6.863	13.467	161.554	12.427	-8191	255	
548.200	1	1	0	0	0.16098	0.18425	0.21302	0.42696	0.18157	0.14113	0.28766	0.21153	0.17612	0.33028	0.30059	0.089598	0.2667	0.094452	0.12664	0.22112	-2.4458	-3.2083	-2.8833	-3.2875	-3.4146	-2.8729	-3.375	-3.3646	-2.625	-3.3438	-3.2604	-2.9437	-3.4354	-2.9437	-3.2562	-3.325	311.918	-12.954	187.414	321.065	150.634	58.421	198.953	233.062	223.049	272.478	87.086	295.500	-3.253	262.279	309.615	329.113	0.0006908	0.00056118	0.00013713	1256.8	7.1157e-06	4.0738e-06	1332	266.25	2.7445e-06	2.0269e-06	327.02	90.816	73.033	21.53	6.2914e-06	28.899	0.00027744	0.00027274	7.588e-05	1229.7	2.9829e-06	2.9676e-06	1299.1	263.37	2.9635e-06	2.9511e-06	320.72	90.013	73.134	21.911	2.9283e-06	29.299	-9.888	28.132	58.216	-7.426	55.523	116.762	-7.564	-0.165	107.852	274.870	-0.542	6.323	6.789	13.732	21.638	13.016	-8191	255	
548.294	1	1	0	0	0.052313	0.059926	0.04633	0.15886	0.1741	0.20588	0.079209	0.27177	0.10244	0.13314	0.093703	0.26332	0.14491	0.10717	0.076686	0.23559	-2.5208	-3.1542	-3.1146	-3.1958	-3.3375	-2.9292	-3.4458	-3.3292	-2.7021	-3.2479	-3.1396	-2.7729	-3.3792	-2.9833	-2.9688	-3.4104	242.294	113.626	109.357	290.388	134.225	191.078	307.468	286.731	252.638	296.523	73.510	29.518	336.872	233.342	183.367	65.602	0.00083271	0.00027279	9.6759e-05	1258.8	3.5595e-06	1.5687e-06	1329.7	266.18	4.3177e-06	2.6893e-06	326.89	90.68	73.18	21.602	2.382e-06	28.788	0.0002731	0.00027027	7.5354e-05	1230	3.0035e-06	2.9535e-06	1298.8	263.13	2.9686e-06	2.9766e-06	320.11	90.262	73.169	21.909	2.9753e-06	29.275	-10.165	34.458	-15.891	-7.369	111.657	150.030	-7.333	-0.479	161.885	112.296	-0.282	6.425	6.534	13.240	154.458	12.960	-8191	255	
548.390	1	1	0	0	0.02763	0.030167	0.16431	0.16995	0.21022	0.18059	0.31962	0.19441	0.1394	0.14536	0.24258	0.34676	0.20122	0.17325	0.2015	0.042659	-2.5563	-3.2313	-3.2208	-3.1646	-3.2542	-3.0062	-3.3187	-3.4708	-2.7896	-3.2646	-3.2938	-2.8563	-3.3063	-3.0833	-3.0604	-3.3063	76.045	263.238	142.892	331.882	150.579	141.037	254.040	257.028	311.075	186.835	302.540	316.367	41.006	52.864	183.308	332.635	0.00091956	0.00058999	0.00010018	1252.4	2.7722e-06	3.6364e-06	1328.7	266.16	6.1431e-06	1.781e-06	327.01	90.159	73.24	21.597	6.7334e-06	28.882	0.00027171	0.00027113	7.5054e-05	1228.2	3.0113e-06	2.9876e-06	1299.6	263.49	2.9822e-06	3.0119e-06	320.6	90.167	73.333	21.935	2.9897e-06	29.361	-17.947	83.871	-2.322	-7.509	132.239	185.537	-7.175	-0.133	76.775	166.045	-0.528	6.664	6.683	13.345	130.943	12.934	-8191	255	
548.488	1	1	0	0	0.18906	0.14794	0.14383	0.13988	0.07515	0.081656	0.23245	0.15161	0.26709	0.052507	0.28916	0.022777	0.059594	0.029195	0.29597	0.15313	-2.6813	-3.1604	-3.1958	-2.9667	-3.3125	-3.0729	-3.0542	-3.4229	-2.8854	-3.1479	-3.3771	-2.8854	-3.4313	-3.1937	-2.8729	-3.5125	251.918	-4.538	30.944	248.271	90.454	255.098	320.879	194.382	119.123	318.622	303.256	140.156	106.263	56.957	86.261	34.959	0.00068795	0.00035317	2.8186e-05	1255.8	7.5295e-06	7.3735e-06	1332.2	266.09	3.3058e-06	1.2382e-06	326.9	90.529	73.498	21.567	4.9473e-06	28.863	0.00027494	0.00027332	7.4283e-05	1227.6	3.0341e-06	3.0067e-06	1299	263.56	3.0155e-06	2.9915e-06	321.14	90.279	73.316	21.889	2.9646e-06	29.244	-1.419	272.514	237.937	-7.602	104.659	173.786	-7.299	-0.341	17.580	-3.198	-0.285	6.167	6.691	13.584	100.532	13.237	-8191	255	
548.583	1	1	0	0	0.24405	0.13981	0.09556	0.14733	0.27625	0.089797	0.21862	0.083279	0.1671	0.17283	0.25376	0.1771	0.12013	0.095755	0.10532	0.20172	-2.6208	-3.0771	-3.1521	-2.9771	-3.1646	-3.25	-3.1042	-3.3542	-2.7958	-2.9958	-3.4979	-2.9	-3.3208	-3.0479	-3.0375	-3.3792	309.740	46.119	165.825	30.311	27.039	80.250	196.660	234.869	330.581	95.140	331.458	-11.184	264.058	38.317	248.171	279.155	0.00051481	0.00026758	1.8255e-05	1252.6	4.508e-06	3.0529e-06	1327.6	265.76	4.5504e-06	2.2523e-06	324.48	89.813	73.047	21.452	3.6859e-06	29.167	0.00027602	0.00027706	7.6046e-05	1226	3.0805e-06	3.0185e-06	1299.2	263.65	3.0594e-06	3.0457e-06	320.71	90.151	73.271	21.892	3.0604e-06	29.366	-3.251	93.058	279.668	-7.619	103.820	114.986	-7.536	-0.211	21.337	167.240	-0.390	6.474	6.717	13.245	192.838	12.717	-8191	255	
548.679	1	1	0	0	0.13596	0.17293	0.35105	0.36781	0.12556	0.063451	0.27758	0.38182	0.13081	0.17662	0.07298	0.20238	0.12638	0.08962	0.15629	0.086094	-2.7	-3.0312	-3.3125	-2.8417	-3.375	-3.1542	-3.0438	-3.4021	-3.1083	-3.0062	-3.4354	-2.8479	-3.1979	-3.1979	-2.6562	-3.2583	91.855	234.865	111.875	284.016	303.520	215.402	289.276	296.623	151.346	101.838	200.934	20.788	208.346	31.117	296.420	237.872	0.0007284	0.0005126	0.00019648	1249.8	4.6614e-06	2.0122e-06	1332.7	265.5	4.0565e-06	1.1038e-06	327.07	90.445	73.391	21.48	1.6343e-06	28.856	0.00027864	0.00027841	7.7121e-05	1227.5	3.0521e-06	3.0502e-06	1299.4	263.25	3.0743e-06	3.0781e-06	321.24	90.114	73.36	21.896	3.0688e-06	29.347	334.269	324.157	73.095	-7.486	71.649	76.377	-7.382	-0.048	135.876	119.569	-0.421	6.711	6.765	13.590	166.631	12.586	-8191	255	
548.775	1	1	0	0	0.15146	0.1073	0.19389	0.24693	0.16154	0.13857	0.18851	0.18744	0.038155	0.1761	0.11786	0.20371	0.12119	0.16167	0.082034	0.098202	-2.5625	-2.9896	-3.3438	-2.9208	-3.1312	-3.3125	-2.9521	-3.5187	-2.9854	-2.9062	-3.4146	-3.0375	-3.0979	-3.3833	-2.975	-3.2479	101.592	90.134	281.873	20.331	199.449	287.422	305.282	294.165	133.527	35.160	275.787	16.065	-3.321	138.383	310.099	239.337	0.00055393	0.00045782	7.2617e-05	1257.7	6.974e-06	1.6849e-06	1332	267.42	8.263e-07	3.4567e-06	326.66	91.109	73.125	21.559	2.9181e-06	28.57	0.00028183	0.0002809	7.7977e-05	1230.7	3.105e-06	3.0894e-06	1302.4	264.32	3.1194e-06	3.0769e-06	321.48	90.652	73.351	21.955	3.131e-06	29.378	334.192	98.584	265.925	-7.363	131.591	213.303	-7.404	-0.464	120.682	-2.667	-0.479	6.197	6.453	13.394	264.758	12.698	-8191	255	
548.895	1	1	0	0	0.30836	0.044006	0.24486	0.20217	0.074157	0.21444	0.23439	0.17746	0.20778	0.24849	0.31348	0.24917	0.11055	0.032644	0.086783	0.16615	-2.825	-2.8229	-3.3229	-2.9562	-3.0062	-3.2979	-2.9375	-3.5312	-3.1167	-2.9729	-3.4292	-3.1229	-3.1208	-3.4271	-2.9833	-3.1813	298.307	73.890	56.461	-12.729	35.833	123.305	256.333	333.669	192.479	-11.421	248.671	307.305	272.616	164.007	174.116	331.850	0.00044435	2.3001e-05	4.4987e-05	1251.9	1.8523e-06	2.3267e-06	1334.8	265.06	1.0974e-05	2.2869e-06	326.14	91.063	73.437	21.562	3.3212e-06	28.829	0.00028722	0.00028209	7.9368e-05	1230.7	3.1529e-06	3.1353e-06	1302.3	263.56	3.169e-06	3.1379e-06	322.04	90.533	73.486	21.99	3.1605e-06	29.358	1.308	31.810	39.514	-7.418	47.103	235.431	-7.260	-0.106	171.032	256.561	-0.288	6.710	6.889	13.658	264.180	12.751	-8191	255	
548.992	1	1	0	0	0.23999	0.12687	0.26998	0.2697	0.19335	0.096768	0.22699	0.14879	0.11354	0.088162	0.17712	0.29396	0.049489	0.076557	0.24472	0.38635	-2.7875	-2.8229	-3.3292	-3.1667	-3.0771	-3.4333	-3.0646	-3.2708	-3.275	-2.7396	-3.3229	-3.1625	-2.9604	-3.3583	-3.0208	-3.1063	143.111	116.209	218.643	285.435	237.985	109.907	206.177	317.231	167.843	254.345	327.813	327.106	48.027	250.970	37.875	334.775	0.00041448	0.00045132	0.00021955	1256.9	4.8415e-06	6.4746e-06	1328.7	265.76	4.2497e-06	1.8844e-06	325.29	90.454	73.062	21.552	3.7142e-06	28.779	0.00028809	0.00028634	8.0236e-05	1229.4	3.1569e-06	3.1305e-06	1301.3	263.68	3.1309e-06	3.1049e-06	321.39	90.268	73.393	21.965	3.1501e-06	29.361	-9.116	32.118	103.178	-7.372	110.799	159.396	-7.452	-0.210	182.380	144.320	-0.021	6.191	6.741	13.173	147.665	12.736	-8191	255	
549.088	1	1	0	0	0.15636	0.16359	0.057482	0.18377	0.16704	0.13436	0.22318	0.21543	0.085227	0.25361	0.094247	0.075173	0.042962	0.0896	0.26267	0.10042	-2.8958	-2.9083	-3.2854	-3.2167	-2.8354	-3.2854	-3.1333	-3.1229	-3.3604	-2.8667	-3.2333	-3.1958	-2.9167	-3.2896	-2.9771	-3.2542	282.310	100.008	323.066	319.562	340.773	171.271	284.270	275.130	81.876	214.577	27.530	311.688	330.774	228.852	231.013	53.444	0.00048097	0.00043111	8.7313e-05	1248.9	2.2232e-06	4.2963e-06	1331.5	267.25	4.8075e-06	5.8224e-06	326.65	90.852	73.278	21.573	2.1283e-06	28.879	0.00028972	0.00029082	8.1358e-05	1228.3	3.2382e-06	3.209e-06	1303.4	264.54	3.2167e-06	3.2271e-06	321.79	90.445	73.532	22.053	3.2197e-06	29.541	341.318	339.557	47.146	-7.316	32.340	190.959	-7.265	-0.058	53.665	135.752	-0.581	6.545	6.884	13.421	164.950	12.784	-8191	255	
549.208	1	1	0	0	0.37035	0.25628	0.11219	0.15083	0.11746	0.18292	0.17835	0.19453	0.19746	0.084799	0.40711	0.082819	0.22066	0.22086	0.10929	0.11798	-2.8438	-2.7604	-3.1063	-3.3812	-2.8083	-3.2854	-3.0083	-2.9417	-3.3833	-2.8458	-3.2458	-3.2896	-2.9208	-3.5208	-3.1208	-3.0042	327.889	110.707	318.006	332.390	269.865	323.679	261.845	340.027	68.236	301.362	-16.564	153.600	330.735	6.783	96.980	289.397	0.0008062	0.00047862	0.00010555	1257.3	7.6231e-07	3.2589e-06	1328.5	265.58	5.0396e-06	1.9838e-06	327.24	91.261	73.472	21.405	3.7161e-06	28.861	0.00030078	0.0002984	8.3849e-05	1232.7	3.2969e-06	3.3084e-06	1304.2	264.53	3.291e-06	3.2966e-06	322.55	90.767	73.625	22.011	3.2775e-06	29.41	-5.106	338.722	93.137	-7.313	96.483	323.680	-7.562	0.067	277.187	220.392	-0.585	6.679	6.587	13.364	144.993	12.850	-8191	255	
#DATA ENDS
