BOXY.EXE: ISS Imagent and Oximeter Data Acquisition Program Version 0.80
Ascii Record File

#ACQ INFORMATION
2  Detector Channels 
16  External MUX Channels 
1  Auxiliary Channels 
5000  Waveform (CCF) Frequency (Hz)
1  Waveforms Skipped 
30  Waveforms Averaged 
1  Cycles Averaged 
16  Acquisitions per Waveform 
10.0806  Updata Rate (Hz) 

#FILE INFORMATION
TRUE -- External MUX Channel results are PARSED.
FALSE -- AC DC and Phase are NOT grouped.
TRUE -- Companion Program Settings File CREATED.
FALSE -- AC data not excluded
FALSE -- DC data not excluded
FALSE -- Phase data not excluded
FALSE -- Auxillary Chn. data not excluded
Tab delimiters

#CALIBRATION STATE
TRUE -- Waveform Calibration Values APPLIED.


#AUX CALIBRATION VALUES
Val Type	aux-1	

Term	1.0000e+00	
Factor	0.0000e+00	


#WF CALIBRATION VALUES
A = Detector Channel
Val Type	A-AC1	A-AC2	A-AC3	A-AC4	A-AC5	A-AC6	A-AC7	A-AC8	A-AC9	A-AC10	A-AC11	A-AC12	A-AC13	A-AC14	A-AC15	A-AC16	A-DC1	A-DC2	A-DC3	A-DC4	A-DC5	A-DC6	A-DC7	A-DC8	A-DC9	A-DC10	A-DC11	A-DC12	A-DC13	A-DC14	A-DC15	A-DC16	A-Ph1	A-Ph2	A-Ph3	A-Ph4	A-Ph5	A-Ph6	A-Ph7	A-Ph8	A-Ph9	A-Ph10	A-Ph11	A-Ph12	A-Ph13	A-Ph14	A-Ph15	A-Ph16	

Term	0.00000e+00	0.00000e+00	0.00000e+00	0.00000e+00	0.00000e+00	0.00000e+00	0.00000e+00	0.00000e+00	0.00000e+00	0.00000e+00	0.00000e+00	0.00000e+00	0.00000e+00	0.00000e+00	0.00000e+00	0.00000e+00	0.00000e+00	0.00000e+00	0.00000e+00	0.00000e+00	0.00000e+00	0.00000e+00	0.00000e+00	0.00000e+00	0.00000e+00	0.00000e+00	0.00000e+00	0.00000e+00	0.00000e+00	0.00000e+00	0.00000e+00	0.00000e+00	0.00000e+00	0.00000e+00	0.00000e+00	0.00000e+00	0.00000e+00	0.00000e+00	0.00000e+00	0.00000e+00	0.00000e+00	0.00000e+00	0.00000e+00	0.00000e+00	0.00000e+00	0.00000e+00	0.00000e+00	0.00000e+00	
Factor	1.00000e+00	1.00000e+00	1.00000e+00	1.00000e+00	1.00000e+00	1.00000e+00	1.00000e+00	1.00000e+00	1.00000e+00	1.00000e+00	1.00000e+00	1.00000e+00	1.00000e+00	1.00000e+00	1.00000e+00	1.00000e+00	1.00000e+00	1.00000e+00	1.00000e+00	1.00000e+00	1.00000e+00	1.00000e+00	1.00000e+00	1.00000e+00	1.00000e+00	1.00000e+00	1.00000e+00	1.00000e+00	1.00000e+00	1.00000e+00	1.00000e+00	1.00000e+00	X	X	X	X	X	X	X	X	X	X	X	X	X	X	X	X	

B = Detector Channel
Val Type	B-AC1	B-AC2	B-AC3	B-AC4	B-AC5	B-AC6	B-AC7	B-AC8	B-AC9	B-AC10	B-AC11	B-AC12	B-AC13	B-AC14	B-AC15	B-AC16	B-DC1	B-DC2	B-DC3	B-DC4	B-DC5	B-DC6	B-DC7	B-DC8	B-DC9	B-DC10	B-DC11	B-DC12	B-DC13	B-DC14	B-DC15	B-DC16	B-Ph1	B-Ph2	B-Ph3	B-Ph4	B-Ph5	B-Ph6	B-Ph7	B-Ph8	B-Ph9	B-Ph10	B-Ph11	B-Ph12	B-Ph13	B-Ph14	B-Ph15	B-Ph16	

Term	0.00000e+00	0.00000e+00	0.00000e+00	0.00000e+00	0.00000e+00	0.00000e+00	0.00000e+00	0.00000e+00	0.00000e+00	0.00000e+00	0.00000e+00	0.00000e+00	0.00000e+00	0.00000e+00	0.00000e+00	0.00000e+00	0.00000e+00	0.00000e+00	0.00000e+00	0.00000e+00	0.00000e+00	0.00000e+00	0.00000e+00	0.00000e+00	0.00000e+00	0.00000e+00	0.00000e+00	0.00000e+00	0.00000e+00	0.00000e+00	0.00000e+00	0.00000e+00	7.91608e+01	-1.57426e+02	-1.25790e+02	-1.81071e+02	-1.33254e+02	-4.33174e+01	-1.58384e+02	-1.62015e+02	-9.85754e+01	-5.35677e+01	-1.74335e+02	-1.74194e+02	-1.80052e+02	-1.76373e+02	-8.84111e+01	-1.49596e+02	
Factor	7.28416e-05	1.18705e-04	3.43277e-05	1.55421e-01	1.40958e-06	1.37877e-06	1.77198e-01	4.90421e-02	1.73132e-06	1.35496e-06	9.21222e-02	3.70337e-02	2.12366e-02	8.91378e-03	1.18770e-06	1.32070e-02	1.01932e-06	1.04090e-06	2.89617e-07	7.87538e-02	1.13864e-08	1.14252e-08	8.37802e-02	2.48126e-02	1.13964e-08	1.14369e-08	4.41850e-02	1.75058e-02	1.07770e-02	4.46422e-03	1.14014e-08	6.34155e-03	X	X	X	X	X	X	X	X	X	X	X	X	X	X	X	X	



#DISTANCE SETTINGS
A = Detector Channel
A-1	A-2	A-3	A-4	A-5	A-6	A-7	A-8	A-9	A-10	A-11	A-12	A-13	A-14	A-15	A-16	

2.5000e+00	3.0000e+00	2.5000e+00	3.0000e+00	2.0000e+00	3.0000e+00	1.5000e+00	3.0000e+00	3.0000e+00	3.0000e+00	3.0000e+00	3.0000e+00	3.0000e+00	3.0000e+00	1.5000e+00	3.0000e+00	

B = Detector Channel
B-1	B-2	B-3	B-4	B-5	B-6	B-7	B-8	B-9	B-10	B-11	B-12	B-13	B-14	B-15	B-16	

1.0000e+01	1.0000e+01	1.0000e+01	1.4400e+00	1.0000e+01	1.0000e+01	1.5100e+00	1.9400e+00	1.0000e+01	1.0000e+01	1.9900e+00	2.4900e+00	2.4100e+00	2.9000e+00	1.0000e+01	2.9800e+00	




#DATA BEGINS
time	group	step	mark	flag	A-AC1	A-AC2	A-AC3	A-AC4	A-AC5	A-AC6	A-AC7	A-AC8	A-AC9	A-AC10	A-AC11	A-AC12	A-AC13	A-AC14	A-AC15	A-AC16	A-DC1	A-DC2	A-DC3	A-DC4	A-DC5	A-DC6	A-DC7	A-DC8	A-DC9	A-DC10	A-DC11	A-DC12	A-DC13	A-DC14	A-DC15	A-DC16	A-Ph1	A-Ph2	A-Ph3	A-Ph4	A-Ph5	A-Ph6	A-Ph7	A-Ph8	A-Ph9	A-Ph10	A-Ph11	A-Ph12	A-Ph13	A-Ph14	A-Ph15	A-Ph16	B-AC1	B-AC2	B-AC3	B-AC4	B-AC5	B-AC6	B-AC7	B-AC8	B-AC9	B-AC10	B-AC11	B-AC12	B-AC13	B-AC14	B-AC15	B-AC16	B-DC1	B-DC2	B-DC3	B-DC4	B-DC5	B-DC6	B-DC7	B-DC8	B-DC9	B-DC10	B-DC11	B-DC12	B-DC13	B-DC14	B-DC15	B-DC16	B-Ph1	B-Ph2	B-Ph3	B-Ph4	B-Ph5	B-Ph6	B-Ph7	B-Ph8	B-Ph9	B-Ph10	B-Ph11	B-Ph12	B-Ph13	B-Ph14	B-Ph15	B-Ph16	aux-1	digaux	

572.015	1	1	0	256	0.18838	0.041081	0.056794	0.11129	0.16387	0.10797	0.20245	0.1146	0.047776	0.064247	0.078174	0.05001	0.093885	0.21782	0.2073	0.12919	-2.4667	-3.2708	-2.8083	-3.4521	-3.3042	-2.75	-3.6375	-3.375	-3.0021	-3.3708	-3.0354	-3.1229	-3.4208	-2.8792	-3.275	-3.2333	242.818	166.146	32.339	286.732	233.450	201.035	5.952	41.889	51.106	273.217	153.434	342.149	298.874	108.804	-3.671	-16.456	0.00053468	0.00027981	7.4019e-05	1144.3	5.0016e-06	4.1767e-06	1262.2	238.82	3.1513e-06	5.2809e-06	303.33	84.901	66.677	19.834	8.3035e-07	27.192	0.00023339	0.00022964	6.4232e-05	1121.7	2.5277e-06	2.5292e-06	1233.2	237.47	2.5232e-06	2.4994e-06	298.7	84.552	66.669	20.145	2.4957e-06	27.669	323.389	46.170	-0.187	-6.809	142.249	142.902	-6.722	0.665	311.556	96.027	0.783	7.432	7.439	13.955	203.970	13.943	-8191	255	
572.111	1	1	0	0	0.07586	0.14207	0.14459	0.13217	0.092463	0.13473	0.25599	0.090873	0.068378	0.093924	0.11252	0.054036	0.22871	0.2402	0.11609	0.20334	-2.5229	-3.4396	-3.0438	-3.1646	-3.4021	-2.925	-3.3604	-3.1875	-3.0563	-3.4896	-3.0833	-2.9729	-3.3563	-2.9542	-3.1312	-3.3375	173.335	266.370	104.716	319.968	277.867	21.002	334.700	283.120	121.541	267.578	66.972	316.355	-2.077	269.997	234.857	306.862	0.00063353	0.00020455	0.00012309	1145	2.135e-06	6.5911e-06	1257.6	238.87	6.4311e-06	1.312e-06	303.04	84.764	66.683	19.835	4.8399e-06	27.298	0.00023115	0.000226	6.4476e-05	1124.2	2.5217e-06	2.5198e-06	1230.7	237.22	2.5436e-06	2.5809e-06	299.28	84.407	66.687	20.151	2.5127e-06	27.7	3.338	116.440	95.609	-6.773	162.780	215.399	-6.668	0.561	103.352	51.307	0.487	7.163	7.772	13.969	40.760	13.381	-8191	255	
572.208	1	1	0	0	0.31784	0.25235	0.075711	0.14192	0.154	0.16911	0.14998	0.12459	0.1476	0.18142	0.11547	0.25167	0.042878	0.24582	0.099297	0.11261	-2.4667	-3.3812	-2.875	-3.175	-3.5062	-3.0708	-3.1583	-3.3	-2.9083	-3.1	-3.0542	-3.0292	-3.2854	-3	-3.1042	-3.4271	151.234	334.248	127.893	-14.635	158.917	340.594	220.734	274.054	324.934	97.695	323.799	305.327	332.233	-1.430	219.043	214.379	0.00065419	0.00013787	0.00011246	1145.9	2.1704e-06	2.9754e-06	1254	237.36	6.1601e-06	4.344e-06	304.69	85.174	66.238	19.651	3.5094e-06	27.257	0.00023317	0.00022816	6.408e-05	1124.8	2.5524e-06	2.5301e-06	1231.2	236.9	2.5638e-06	2.5559e-06	299.22	84.592	66.427	20.097	2.5283e-06	27.654	-3.596	118.765	79.444	-6.670	37.468	253.773	-6.428	0.678	327.088	108.179	0.386	7.269	7.278	13.721	132.851	13.710	-8191	255	
572.304	1	1	0	0	0.082119	0.14196	0.073412	0.13554	0.19823	0.17116	0.29816	0.20049	0.14013	0.091151	0.15744	0.083476	0.020904	0.014866	0.15719	0.15817	-2.4521	-3.3271	-3.0979	-3.0875	-3.3667	-3.0042	-3.3083	-3.6021	-2.9396	-3.1562	-3.1437	-2.8542	-3.3167	-2.9938	-2.8729	-3.2833	12.663	302.708	233.916	90.639	-4.155	19.110	161.815	47.989	101.687	224.578	5.679	-3.570	291.346	224.353	125.159	199.171	0.00044565	0.00015887	0.00018261	1143.2	7.8188e-06	5.5703e-06	1262.8	238.3	1.0151e-05	2.1481e-06	303.65	85.259	66.419	19.804	4.5072e-06	27.2	0.000237	0.00022755	6.4e-05	1123.3	2.5487e-06	2.5017e-06	1231.8	236.69	2.5058e-06	2.5163e-06	299.06	84.688	66.478	20.07	2.5052e-06	27.637	-6.771	58.705	124.280	-6.601	82.133	116.380	-6.730	0.792	182.790	94.217	0.236	7.306	7.425	14.323	182.391	13.298	-8191	255	
572.398	1	1	0	0	0.080838	0.076101	0.20053	0.13123	0.12766	0.35333	0.22611	0.06944	0.13242	0.29931	0.063887	0.069005	0.2438	0.074305	0.076537	0.13785	-2.4729	-3.275	-3.2625	-2.8563	-3.3583	-3.0396	-3.2083	-3.4062	-3.0917	-3.1792	-3.2854	-2.825	-3.5042	-3.1604	-2.9708	-3.4208	309.507	68.109	77.667	230.210	162.497	5.847	332.584	192.568	226.822	3.807	223.247	228.571	9.362	14.227	303.994	133.493	0.00055928	0.00025192	7.0382e-05	1141.7	1.7167e-06	3.1447e-06	1260	238.74	6.3911e-06	3.6982e-06	303.29	85.307	66.476	19.719	2.0708e-06	27.333	0.00023242	0.00022572	6.3016e-05	1123.3	2.4999e-06	2.5059e-06	1233.1	237.16	2.4839e-06	2.5034e-06	298.99	84.56	66.446	20.063	2.4867e-06	27.675	-5.285	301.091	142.434	-6.685	93.658	187.528	-6.862	0.597	153.124	209.955	0.498	7.003	7.492	13.832	303.720	14.021	-8191	255	
572.496	1	1	0	0	0.16329	0.26084	0.21107	0.48841	0.0747	0.095041	0.24705	0.19361	0.086116	0.3217	0.09373	0.14966	0.2555	0.022219	0.31717	0.24419	-2.4667	-3.05	-3.1146	-3.0521	-3.2958	-3.15	-3.1354	-3.5563	-3.1604	-3.0521	-3.4354	-2.7979	-3.4542	-3.0667	-2.7521	-3.4146	319.293	233.038	329.639	320.075	166.627	133.374	223.612	15.492	300.072	123.818	309.872	276.213	-16.236	51.826	227.545	292.350	0.0004011	8.3806e-05	9.8262e-05	1145.1	1.5957e-06	7.7451e-06	1257.9	238.8	6.3731e-06	5.3227e-06	304.41	85.349	66.089	19.775	2.6364e-06	27.351	0.00023199	0.00022885	6.3321e-05	1124.7	2.5562e-06	2.5104e-06	1231.7	237.21	2.5369e-06	2.5225e-06	299.07	84.656	66.451	20.129	2.5218e-06	27.697	-2.333	151.585	152.157	-6.548	72.955	122.701	-6.699	0.581	205.125	157.281	0.682	7.453	7.645	13.984	32.210	13.890	-8191	255	
572.615	1	1	0	0	0.032089	0.081076	0.29603	0.21627	0.065115	0.10677	0.22138	0.27582	0.085573	0.10105	0.1774	0.15991	0.20351	0.077959	0.16574	0.057195	-2.5687	-3.0938	-3.2917	-3.0375	-3.3375	-3.1271	-3.2083	-3.4188	-3.1125	-3.0979	-3.4583	-2.9292	-3.2208	-3.1583	-2.8292	-3.4042	56.944	161.896	24.306	-1.538	150.415	181.415	254.703	326.130	10.880	283.861	258.028	331.896	34.079	-5.153	102.168	251.466	0.00024065	0.00072792	0.00011356	1142.1	1.4165e-06	4.4543e-06	1259.5	238.89	5.3749e-06	1.5262e-06	303.45	84.822	66.504	19.666	3.2513e-06	27.379	0.00023294	0.00022728	6.3354e-05	1123.6	2.4855e-06	2.4889e-06	1231.5	237.4	2.497e-06	2.4732e-06	299.01	84.473	66.432	20.077	2.4945e-06	27.63	337.548	75.053	53.502	-6.976	177.363	223.841	-6.674	0.716	111.389	48.016	0.510	7.607	7.269	14.315	143.925	13.619	-8191	255	
572.711	1	1	0	0	0.15439	0.2219	0.22561	0.20022	0.22405	0.26858	0.15565	0.16753	0.14689	0.38217	0.339	0.044141	0.27265	0.080636	0.21994	0.090262	-2.6104	-2.9646	-3.4271	-3.0062	-3.0125	-3.2125	-3.0708	-3.3312	-3.0229	-3.0021	-3.2	-3.0229	-3.2583	-3.2062	-2.8354	-3.4167	258.960	231.753	77.973	299.812	270.264	62.614	-0.463	246.261	84.471	285.351	280.124	323.063	339.078	327.697	231.603	173.530	0.00058605	0.00018782	2.5951e-05	1146.6	4.5874e-06	5.7871e-06	1258.8	238.97	2.6761e-06	2.2982e-06	303.62	84.963	66.553	19.674	3.0585e-06	27.207	0.00023182	0.00022575	6.3675e-05	1124.6	2.504e-06	2.4466e-06	1230.7	237.21	2.4991e-06	2.476e-06	298.25	84.446	66.396	20.069	2.4687e-06	27.649	3.508	317.927	-0.112	-6.868	3.756	96.683	-7.032	0.634	306.494	103.456	0.462	7.281	7.556	13.714	104.880	13.475	-8191	255	
572.807	1	1	0	0	0.17715	0.072396	0.098076	0.12231	0.019998	0.35517	0.25082	0.061911	0.14009	0.12311	0.2505	0.15811	0.20909	0.26277	0.17753	0.17003	-2.6458	-2.7812	-3.2042	-3.0979	-2.9875	-3.3833	-3.0729	-3.3771	-3.2104	-2.8479	-3.5333	-3.0146	-3.1521	-3.3167	-2.9792	-3.2938	138.780	125.635	275.230	219.560	92.021	87.742	294.552	246.839	153.130	67.546	299.116	324.805	270.243	238.734	160.028	250.556	0.00065015	0.00051305	7.8576e-05	1146	6.7517e-06	6.6659e-06	1258.7	240.08	8.8471e-06	4.6418e-06	305.3	85.29	65.833	19.658	5.0751e-06	27.365	0.00022532	0.0002267	6.2799e-05	1124.2	2.4672e-06	2.4644e-06	1232	237.42	2.462e-06	2.4796e-06	299.08	84.565	66.164	20.054	2.5112e-06	27.675	-9.917	7.718	75.898	-6.713	71.637	105.076	-6.998	0.737	170.118	115.230	0.023	7.339	7.509	14.199	124.557	13.694	-8191	255	
572.903	1	1	0	0	0.3183	0.21912	0.11508	0.23217	0.1771	0.093031	0.21705	0.18933	0.14505	0.12051	0.014067	0.034945	0.13822	0.22414	0.41908	0.067467	-2.8167	-2.7083	-3.2646	-3.2354	-3.075	-3.2521	-3.1	-3.3042	-3.2646	-2.9417	-3.4458	-3.0625	-3.0708	-3.5667	-3.0771	-3.2042	338.874	156.733	246.320	264.752	279.232	188.657	23.407	295.546	79.143	272.607	267.261	307.352	162.832	174.714	184.066	-11.356	0.00073646	0.00055517	5.3444e-05	1144.1	4.4406e-06	2.3836e-06	1258.8	239.75	2.502e-06	3.7362e-06	303.91	85.32	66.14	19.726	5.2565e-07	27.131	0.00023101	0.00022528	6.312e-05	1123.9	2.5059e-06	2.4544e-06	1230.8	237.42	2.4759e-06	2.4597e-06	298.71	84.379	66.426	20.084	2.4794e-06	27.552	333.517	-11.473	268.628	-6.899	117.145	124.298	-6.711	0.540	335.328	153.345	0.462	7.151	7.739	14.204	331.315	13.833	-8191	255	
572.999	1	1	0	0	0.17094	0.23732	0.067996	0.091277	0.021651	0.10899	0.075828	0.073809	0.088498	0.12524	0.075586	0.13155	0.12283	0.20636	0.075719	0.040031	-2.8438	-2.8667	-3.1958	-3.3312	-2.9125	-3.3021	-3.0646	-3.5104	-3.4042	-2.8063	-3.2875	-3.1	-2.9583	-3.3229	-2.9229	-3.0438	333.996	9.529	-6.793	4.430	23.934	217.049	293.416	20.398	169.311	17.933	118.278	296.023	293.452	283.090	0.344	27.919	0.00034029	0.0003331	0.00015503	1140.9	5.5764e-06	2.4131e-06	1252.1	239.29	1.5892e-06	1.6754e-06	304.69	84.742	66.141	19.534	6.4092e-07	27.296	0.00022774	0.00022906	6.3534e-05	1123.4	2.5144e-06	2.4805e-06	1229.9	237.45	2.4871e-06	2.4927e-06	298.83	84.488	66.238	20.057	2.4817e-06	27.635	305.261	75.548	148.999	-6.828	184.279	242.220	-6.415	0.674	177.111	262.196	0.449	7.372	7.248	14.203	219.851	13.529	-8191	255	
573.096	1	1	0	0	0.072437	0.29448	0.10916	0.21475	0.052254	0.069785	0.1915	0.21763	0.15924	0.17696	0.16899	0.25938	0.10196	0.22399	0.27921	0.20736	-2.9437	-2.8	-3.2417	-3.3104	-2.8375	-3.3979	-3.2521	-3.2396	-3.4333	-2.7854	-3.3375	-3.1312	-2.7896	-3.3896	-2.8146	-2.9688	149.790	288.030	187.661	342.699	201.932	173.284	272.100	237.657	183.706	28.775	224.569	-9.187	40.631	187.584	313.284	-13.637	0.00074399	0.00025918	7.0438e-05	1143.7	2.2504e-06	4.8236e-06	1258.7	239.1	6.9412e-06	3.9583e-06	303.79	85.129	66.368	19.537	6.5148e-06	27.489	0.00022511	0.00022096	6.1967e-05	1124.4	2.4418e-06	2.408e-06	1230.8	237.05	2.4222e-06	2.4357e-06	298.76	84.281	66.531	20.025	2.4241e-06	27.542	-11.121	98.433	53.705	-6.720	104.880	207.593	-6.799	0.703	181.599	164.136	0.520	7.502	7.503	14.310	25.603	13.094	-8191	255	
573.216	1	1	0	0	0.14013	0.22366	0.10251	0.23046	0.13639	0.20553	0.31114	0.14278	0.12533	0.091074	0.12589	0.11747	0.093772	0.046491	0.028418	0.085274	-2.8354	-2.8729	-3.3021	-3.1771	-2.7875	-3.275	-3.1729	-3.0938	-3.3146	-2.9521	-3.125	-3.2771	-2.9729	-3.2542	-3.1562	-2.975	131.591	59.072	340.307	263.672	-0.777	321.042	291.025	50.234	108.571	189.661	43.134	152.880	96.294	183.590	121.446	180.039	0.00052457	0.00026371	0.00012306	1143.1	2.3165e-06	3.8581e-06	1258.3	238.88	2.0682e-06	7.8012e-07	304.18	84.882	65.994	19.588	1.1147e-06	27.33	0.00022373	0.00022101	6.2042e-05	1123.9	2.428e-06	2.4229e-06	1229.3	236.85	2.4176e-06	2.4016e-06	298.57	84.188	66.116	19.979	2.4044e-06	27.592	338.707	42.911	161.616	-6.754	87.815	183.862	-6.685	0.652	78.091	175.601	0.566	7.519	7.725	14.487	91.560	13.729	-8191	255	
573.311	1	1	0	0	0.14778	0.081384	0.17625	0.20815	0.15916	0.11201	0.40275	0.2999	0.084049	0.13994	0.20263	0.13686	0.271	0.25504	0.057557	0.23764	-2.7146	-3.0229	-3.3	-3.35	-2.85	-3.2292	-3.2917	-3.0021	-3.425	-3.0104	-3.0917	-3.4292	-2.8208	-3.1292	-3.3167	-2.9083	80.437	36.518	94.473	282.761	10.435	270.351	295.472	279.533	199.310	20.871	275.456	94.803	290.962	-15.068	206.609	149.211	0.00035295	0.00014312	0.00012077	1145.7	4.7722e-06	2.5968e-06	1260.1	238.09	2.3522e-06	4.5341e-06	304.15	84.899	66.154	19.601	6.0269e-06	27.217	0.00022098	0.00021775	6.1451e-05	1122.4	2.4447e-06	2.3826e-06	1230	236.22	2.4005e-06	2.4038e-06	298.4	84.139	66.144	19.977	2.4046e-06	27.562	334.783	188.297	129.302	-6.682	2.021	45.157	-6.466	0.481	164.646	117.419	0.719	7.402	7.412	14.096	144.145	13.703	-8191	255	
573.384	1	1	0	0	0.074488	0.13742	0.0028989	0.25376	0.12977	0.11588	0.016528	0.14431	0.24346	0.12246	0.40581	0.24787	0.11954	0.051274	0.11737	0.18031	-2.8312	-2.9667	-2.9688	-3.4396	-2.8167	-3.2979	-3.3979	-2.9354	-3.2625	-3.0312	-3.0354	-3.2646	-2.9167	-3.375	-3.2479	-2.9104	230.581	119.456	279.163	251.161	226.259	29.217	290.996	116.158	318.425	57.413	320.800	284.861	117.643	63.684	260.532	-8.415	0.00076021	0.00012543	9.3029e-05	1141.2	3.68e-06	3.2939e-06	1256.8	237.95	3.8294e-06	6.388e-06	302.07	84.408	65.943	19.692	3.2476e-06	27.059	0.000225	0.00022416	6.1428e-05	1122	2.4714e-06	2.4418e-06	1230.2	236.18	2.4584e-06	2.4102e-06	297.61	83.923	66.156	20.013	2.43e-06	27.567	-14.655	142.414	54.239	-6.717	114.564	188.151	-6.568	0.974	152.300	197.742	0.539	7.346	7.469	13.859	98.861	13.827	-8191	255	
573.503	1	1	0	0	0.17986	0.17545	0.10508	0.18823	0.30255	0.25453	0.1245	0.32031	0.056343	0.20714	0.09467	0.11578	0.1411	0.10668	0.22004	0.17138	-2.9021	-3.1375	-2.8312	-3.4896	-2.8083	-3.2687	-3.4125	-3.0646	-3.1958	-3.2042	-3.0292	-3.3958	-3.1271	-3.0667	-3.2146	-3.0833	242.755	335.413	210.773	77.763	316.566	215.061	279.480	303.959	340.524	72.773	272.340	236.280	110.845	321.337	193.148	28.962	0.00068113	0.00033107	0.00014847	1145.7	6.142e-06	6.9537e-06	1260	237.81	3.2043e-06	4.9182e-06	303.94	84.562	66.023	19.663	3.3901e-06	27.151	0.00022463	0.0002237	6.2052e-05	1121.7	2.4322e-06	2.4219e-06	1230.5	236.51	2.4736e-06	2.4691e-06	298	83.993	65.989	19.956	2.4704e-06	27.476	334.386	71.532	37.392	-6.632	99.818	35.294	-6.593	0.603	0.727	197.068	0.639	7.565	7.616	13.621	50.428	13.439	-8191	255	
573.599	1	1	0	0	0.17387	0.20169	0.12332	0.063361	0.13455	0.3361	0.092927	0.22753	0.046167	0.19968	0.069969	0.069583	0.20524	0.29778	0.29169	0.13389	-2.7292	-3.1375	-2.8354	-3.5625	-2.9521	-3.2042	-3.475	-3.0563	-3.1792	-3.0938	-3.0438	-3.3146	-2.9854	-3.1854	-3.4813	-3.0833	23.248	-4.222	118.019	341.960	272.965	311.293	-13.631	315.081	199.094	20.792	183.932	-1.242	318.548	281.850	99.592	76.856	0.00043991	1.7016e-05	0.00017683	1142.7	3.0286e-06	1.7156e-06	1253.4	238.58	9.3345e-07	3.1936e-06	304.03	84.368	65.834	19.658	5.6242e-06	27.155	0.000229	0.00022936	6.408e-05	1121.5	2.5135e-06	2.5294e-06	1229.1	236.63	2.5462e-06	2.5096e-06	298.68	83.944	65.999	20.003	2.51e-06	27.525	-16.706	11.489	119.334	-6.894	141.457	223.899	-6.407	0.616	235.249	31.162	0.378	7.226	7.567	14.393	190.444	13.922	-8191	255	
573.695	1	1	0	0	0.032643	0.090368	0.066494	0.27571	0.21194	0.11361	0.2156	0.20559	0.13198	0.17907	0.10887	0.13018	0.064571	0.091569	0.13506	0.0477	-2.7375	-3.2687	-2.8646	-3.5271	-3.1354	-3.0458	-3.7062	-2.9417	-3.1604	-3.2521	-3.0604	-3.4958	-3.1667	-3.0167	-3.4167	-3.1375	138.524	227.118	113.418	294.020	213.144	191.149	282.459	-7.244	128.971	18.856	260.838	143.133	-11.323	209.462	49.313	270.228	0.0002206	0.00022383	5.8249e-05	1140.6	3.395e-06	2.4912e-06	1250	237.35	2.6144e-06	2.6137e-06	301.79	84.914	65.653	19.55	4.3335e-06	27.131	0.00023204	0.00022757	6.4559e-05	1121	2.5701e-06	2.5113e-06	1225.9	235.95	2.5508e-06	2.5452e-06	297.68	83.971	66.134	19.937	2.5538e-06	27.569	302.564	106.532	31.485	-6.899	60.880	147.908	-6.607	0.547	75.627	69.921	0.632	7.376	7.326	14.119	116.742	13.651	-8191	255	
573.791	1	1	0	0	0.16664	0.23703	0.29764	0.1904	0.17455	0.067551	0.17652	0.26634	0.090004	0.15876	0.13329	0.23772	0.30035	0.29301	0.060878	0.14135	-2.5875	-3.1042	-2.9042	-3.3875	-3.1188	-2.9313	-3.4667	-3.0333	-3.1063	-3.3229	-3.0792	-3.2917	-3.3104	-3.1271	-3.5292	-3.0396	56.444	94.337	36.020	210.878	272.649	148.105	289.905	252.074	276.737	256.111	71.610	291.222	318.553	37.352	2.749	280.226	0.00041464	0.0002844	1.0401e-05	1139.8	2.8071e-06	4.1515e-06	1257.1	238.37	1.9996e-06	4.5871e-06	303.67	84.164	66.111	19.523	2.9781e-06	27.146	0.00023661	0.00023339	6.489e-05	1121.6	2.5692e-06	2.5667e-06	1229.5	236.34	2.6026e-06	2.5649e-06	298.71	84.013	66.262	19.993	2.5698e-06	27.459	332.222	327.424	47.956	-6.704	73.983	213.835	-6.772	0.614	151.315	203.074	0.342	7.449	7.396	14.195	12.742	13.485	-8191	255	
573.912	1	1	0	0	0.13482	0.18224	0.1264	0.1861	0.18572	0.15906	0.16391	0.10233	0.12021	0.10482	0.10809	0.20548	0.12511	0.10394	0.076261	0.12567	-2.8063	-3.4	-2.8125	-3.5958	-3.2938	-2.8937	-3.5292	-3.1562	-3.0042	-3.2188	-2.9458	-3.3354	-3.2396	-2.9667	-3.4354	-3.1146	287.215	20.919	168.215	312.537	314.079	-3.517	244.727	216.390	93.719	253.842	301.565	134.522	-3.376	66.641	-12.772	197.612	0.00067117	0.00045434	0.00011864	1142.8	3.73e-06	3.2039e-06	1253.6	238.5	7.0312e-06	4.4433e-07	302.76	84.842	65.92	19.542	4.8931e-06	27.214	0.00023647	0.00023506	6.5163e-05	1121.4	2.5867e-06	2.5509e-06	1231	236.54	2.5378e-06	2.5278e-06	298.27	84.081	66.009	19.944	2.4903e-06	27.498	342.756	7.062	-11.875	-6.517	157.445	278.470	-6.749	0.786	117.929	237.480	0.565	7.574	7.765	14.111	92.661	13.781	-8191	255	
573.984	1	1	0	0	0.13626	0.10123	0.21853	0.15953	0.086113	0.2697	0.23133	0.051734	0.14419	0.10703	0.15577	0.054986	0.1085	0.10087	0.22315	0.14025	-2.7833	-3.275	-2.8396	-3.4604	-3.1708	-2.7854	-3.6104	-3.1896	-2.925	-3.4292	-3.0312	-3.2021	-3.4208	-2.9333	-3.3438	-3.3479	337.236	107.696	289.728	280.295	200.316	177.271	306.486	211.805	42.261	46.725	173.477	315.420	146.086	166.199	258.171	222.286	0.00065108	0.00051337	9.6885e-05	1140.6	4.6337e-06	7.3151e-06	1258.5	238.4	4.7049e-06	1.6473e-06	304.07	84.203	65.667	19.465	9.3207e-08	27.261	0.00023346	0.00022885	6.4569e-05	1121.6	2.4973e-06	2.5325e-06	1228.4	236.23	2.5102e-06	2.5023e-06	298.28	83.97	65.856	19.937	2.5274e-06	27.55	-14.644	56.278	84.221	-6.611	94.338	160.111	-6.724	0.547	130.910	326.605	0.312	7.381	7.268	14.545	170.184	13.558	-8191	255	
574.080	1	1	0	0	0.2421	0.15262	0.038315	0.041312	0.23479	0.22393	0.16002	0.21074	0.17706	0.12784	0.16654	0.037682	0.10678	0.038455	0.13885	0.056574	-2.5042	-3.3417	-3.0833	-3.1813	-3.4229	-2.9146	-3.4667	-3.1188	-2.8937	-3.425	-3.2125	-3.1729	-3.2896	-3.0333	-3.2729	-3.1229	141.008	257.859	308.514	111.008	48.708	189.308	271.179	262.469	274.221	19.963	-10.986	-12.992	42.597	61.237	16.943	81.471	0.00037568	0.00056415	6.7236e-05	1144.5	2.1861e-06	4.4153e-06	1255	237.88	7.2696e-06	5.2828e-06	300.95	84.355	65.857	19.553	2.2361e-06	27.209	0.00023008	0.00022706	6.404e-05	1122.6	2.5175e-06	2.5086e-06	1230.6	236.33	2.5259e-06	2.5041e-06	297.49	83.769	65.946	19.952	2.4442e-06	27.477	-17.254	23.193	40.762	-6.713	287.967	104.004	-6.724	0.730	152.566	196.014	0.354	7.648	7.795	14.320	118.173	13.900	-8191	255	
574.176	1	1	0	0	0.1111	0.01888	0.18934	0.17581	0.026747	0.31413	0.39916	0.1402	0.14949	0.35356	0.13006	0.23676	0.16682	0.09	0.20273	0.062757	-2.4458	-3.3104	-3.0583	-3.2479	-3.2896	-2.9958	-3.3458	-3.3083	-2.8688	-3.3229	-3.0833	-3.0125	-3.3187	-2.9	-3.0938	-3.2792	55.505	30.684	277.969	-16.777	127.791	262.019	263.630	272.513	249.310	157.348	224.715	288.477	211.010	-10.442	188.247	334.042	0.00065763	0.00065806	7.6594e-05	1140.9	3.8454e-06	1.7065e-06	1252.9	238.13	5.9396e-06	1.563e-06	303.39	84.763	66.082	19.624	2.0235e-06	27.02	0.00022301	0.0002253	6.2443e-05	1120.8	2.4631e-06	2.4365e-06	1230.7	236.01	2.4591e-06	2.4293e-06	298.28	84.021	66.077	19.94	2.4512e-06	27.447	340.248	4.258	71.123	-6.557	45.447	199.377	-6.596	0.709	167.758	155.617	0.600	7.414	7.460	14.131	56.408	13.716	-8191	255	
574.295	1	1	0	0	0.14407	0.11057	0.15879	0.34197	0.30915	0.10752	0.25957	0.18493	0.036472	0.19766	0.087153	0.15793	0.16625	0.071704	0.12342	0.1971	-2.5	-3.1917	-3.0375	-3.0062	-3.3896	-2.8833	-3.3542	-3.45	-2.725	-3.3646	-3.3771	-2.8896	-3.35	-2.8542	-3.1167	-3.2854	340.998	166.171	334.061	22.373	14.156	173.216	297.872	48.227	342.689	62.871	138.248	193.796	215.130	231.071	57.899	-5.674	0.00078106	0.00021197	8.5768e-05	1144.8	4.3627e-06	8.6981e-07	1250.2	238.27	5.52e-06	2.5133e-06	301.81	84.603	66.458	19.476	2.6711e-06	27.104	0.00022763	0.00022121	6.1367e-05	1122.5	2.449e-06	2.4177e-06	1230.1	236.24	2.4508e-06	2.4229e-06	297.87	84.081	66.203	19.92	2.443e-06	27.42	-0.342	118.551	71.404	-6.474	52.710	40.726	-6.370	0.900	75.040	102.283	0.681	7.575	7.504	13.818	281.391	13.559	-8191	255	
574.391	1	1	0	0	0.18492	0.10332	0.1479	0.15735	0.20127	0.13721	0.28473	0.13215	0.1589	0.09093	0.22001	0.14985	0.13097	0.15476	0.11262	0.20255	-2.4125	-3	-3.0646	-2.9	-3.2375	-3.0833	-3.1937	-3.4396	-2.8688	-3.25	-3.3312	-3.0521	-3.5396	-3.0958	-2.9375	-3.2875	183.610	194.561	128.528	270.526	8.688	-9.589	341.072	257.129	54.816	-3.401	270.601	28.779	-1.540	129.473	134.844	239.812	0.00056872	7.3087e-05	0.00012578	1145.4	3.147e-06	2.5402e-06	1254.4	238.68	3.6615e-06	1.8857e-06	301.94	85.031	65.914	19.618	2.576e-06	26.957	0.00022595	0.00022091	6.196e-05	1122.6	2.499e-06	2.4572e-06	1228	236.19	2.4905e-06	2.4727e-06	297.91	84.191	66.107	19.953	2.4641e-06	27.462	340.923	274.332	302.140	-6.647	81.742	119.283	-6.654	0.728	148.007	180.612	0.513	6.870	7.524	14.267	191.332	13.553	-8191	255	
574.489	1	1	0	0	0.33233	0.30534	0.1814	0.29263	0.019896	0.17303	0.39704	0.38872	0.35293	0.10931	0.078144	0.17819	0.26181	0.096309	0.26225	0.030833	-2.5667	-3.1083	-3.3833	-3.1292	-3.225	-3.0333	-2.9833	-3.4479	-2.8625	-3.1375	-3.3875	-2.9604	-3.2938	-3.1813	-2.9542	-3.3646	163.369	137.607	329.662	284.684	16.696	23.223	319.460	257.359	114.767	146.942	286.739	330.144	98.976	147.881	31.074	227.422	0.00051712	0.00045103	0.00011649	1148.9	5.4455e-06	2.1809e-06	1258.6	238.34	1.2454e-06	4.3279e-06	303.05	84.665	66.019	19.758	3.5997e-06	27.237	0.00023153	0.00022439	6.3187e-05	1124.2	2.4836e-06	2.4647e-06	1232.7	236.33	2.4801e-06	2.4793e-06	298.28	84.139	66.077	20.035	2.4823e-06	27.565	331.433	308.547	-7.326	-6.838	23.013	-14.557	-6.541	0.688	142.887	107.508	0.510	7.291	7.947	13.790	122.443	13.548	-8191	255	
574.608	1	1	0	0	0.12125	0.17487	0.06344	0.22942	0.1693	0.095414	0.12913	0.2927	0.042681	0.034675	0.39474	0.14148	0.060928	0.11306	0.15293	0.1736	-2.6562	-3.0708	-3.2208	-2.8771	-3.2792	-3.2271	-3.2083	-3.3792	-3.0312	-3.1688	-3.4833	-2.8708	-3.3667	-3.15	-2.8292	-3.4604	63.914	193.091	108.796	306.923	97.632	46.524	289.080	278.419	121.356	68.079	310.099	126.739	236.168	213.837	-13.070	280.577	0.00048735	0.00064499	0.00010454	1144.2	5.2804e-06	7.8138e-06	1249	238.06	6.6442e-06	2.3304e-06	301.64	84.293	65.713	19.617	7.5297e-06	27.245	0.00022857	0.00022675	6.2519e-05	1123.4	2.5242e-06	2.5004e-06	1228.8	236.63	2.529e-06	2.476e-06	297.79	83.855	66.074	19.988	2.5639e-06	27.594	334.275	56.828	260.272	-6.616	27.525	168.438	-6.574	0.849	147.430	223.358	0.496	7.425	7.382	14.302	135.658	14.016	-8191	255	
574.679	1	1	0	0	0.088739	0.34404	0.12437	0.22624	0.30924	0.18906	0.26648	0.22066	0.28695	0.32197	0.16878	0.15236	0.11734	0.13562	0.053946	0.10905	-2.6396	-2.9958	-3.2292	-3.0583	-3.1937	-3.1063	-3.1562	-3.55	-3.0375	-3.0854	-3.3292	-2.8125	-3.3021	-3.4229	-2.8667	-3.4146	3.979	47.534	133.071	236.092	90.476	35.897	224.488	248.193	93.218	255.003	220.028	-10.199	340.447	319.025	21.276	225.575	0.0006067	0.00020566	0.00023226	1146.6	4.0358e-06	2.5808e-06	1251.5	238.66	3.6369e-06	5.4017e-06	302.1	84.516	65.705	19.546	5.1256e-06	27.039	0.00022959	0.00022596	6.3164e-05	1124.4	2.5097e-06	2.4976e-06	1229.9	236.39	2.508e-06	2.4767e-06	297.56	84.086	66.051	19.955	2.4972e-06	27.501	341.079	208.696	37.798	-6.653	123.082	137.779	-6.770	0.824	157.453	106.738	0.459	7.351	7.403	14.382	60.063	13.733	-8191	255	
574.776	1	1	0	0	0.013956	0.089361	0.28563	0.25346	0.14528	0.092744	0.11109	0.22662	0.094124	0.15074	0.17189	0.068764	0.067329	0.13777	0.050875	0.14829	-2.7667	-2.9021	-3.3333	-3.0812	-3.1708	-3.25	-2.9562	-3.3729	-3.2313	-3.0208	-3.4292	-3.0021	-3.3187	-3.3083	-2.9208	-3.1833	95.185	336.025	106.672	261.235	257.146	294.421	228.535	-11.226	88.795	103.812	184.030	88.923	328.159	99.688	273.126	256.697	0.00058378	0.00022323	5.4621e-05	1146.3	1.5685e-06	6.9929e-07	1258.8	238.11	3.6673e-06	2.9728e-06	301.03	84.312	66.303	19.624	2.9609e-06	26.977	0.00023032	0.00022685	6.3134e-05	1122.6	2.5036e-06	2.4744e-06	1230.3	236.31	2.5037e-06	2.5157e-06	297.47	83.728	66.09	19.984	2.5186e-06	27.386	11.687	71.683	258.831	-6.808	59.998	61.560	-6.567	0.885	15.432	169.683	0.290	7.784	7.461	14.628	59.466	13.449	-8191	255	
574.896	1	1	0	0	0.14668	0.062722	0.14883	0.10987	0.14672	0.14695	0.15203	0.15462	0.1617	0.23034	0.035162	0.14255	0.2978	0.067904	0.30879	0.058178	-2.7896	-2.8542	-3.2792	-3.075	-3.1521	-3.4271	-2.9667	-3.3563	-3.3229	-3.1125	-3.6167	-3.1042	-3.1229	-3.3875	-2.8771	-3.275	35.913	19.558	140.662	220.645	231.407	59.491	251.637	301.907	102.301	88.081	42.897	277.750	215.649	290.484	80.977	99.183	0.00045211	0.00035461	0.00013174	1145.2	1.8279e-06	6.8876e-06	1253.4	237.03	6.103e-06	4.657e-06	302.37	83.957	65.607	19.595	4.5205e-06	27.051	0.00023125	0.00022984	6.3199e-05	1123.5	2.5382e-06	2.5196e-06	1229.9	236.05	2.5369e-06	2.5009e-06	297.71	83.847	65.975	19.962	2.5378e-06	27.429	320.306	77.403	104.632	-6.562	101.004	129.849	-6.445	1.076	106.561	186.184	0.431	7.598	7.634	13.678	109.768	13.996	-8191	255	
574.992	1	1	0	0	0.15287	0.19206	0.029144	0.40526	0.13331	0.19479	0.17291	0.21997	0.19155	0.084619	0.22028	0.19399	0.202	0.15976	0.1504	0.24196	-2.7604	-2.7646	-3.3667	-3.1896	-3.0792	-3.3104	-3.1521	-3.1667	-3.3396	-3.0167	-3.2146	-3.1813	-3.0312	-3.5375	-3.0271	-3.2354	296.534	331.572	34.681	293.285	95.264	59.038	13.409	-0.896	286.664	46.947	254.907	205.780	307.623	-13.267	273.842	311.235	0.00065695	0.00034846	7.8e-05	1139.4	6.2242e-07	4.1042e-06	1253.9	237.43	5.4127e-06	4.5601e-06	301.3	84.826	65.86	19.513	3.9506e-06	27.352	0.00023176	0.00022873	6.3784e-05	1123	2.4733e-06	2.5204e-06	1227.7	235.91	2.4842e-06	2.5443e-06	297.18	83.971	66.087	19.945	2.5415e-06	27.568	341.289	93.425	85.037	-6.687	222.009	169.442	-6.502	0.816	188.021	102.019	0.729	7.179	7.711	14.137	-15.469	13.657	-8191	255	
575.089	1	1	0	0	0.045988	0.061023	0.10488	0.1849	0.049558	0.1236	0.17551	0.19186	0.054977	0.21239	0.20925	0.11826	0.18066	0.092822	0.031395	0.089504	-2.8354	-2.6833	-3.1771	-3.2417	-3.0333	-3.3604	-3.2708	-3.2729	-3.2479	-2.9146	-3.3542	-3.2417	-2.9104	-3.3583	-3.0667	-3.1396	323.671	-2.670	266.234	311.186	178.390	171.953	325.263	314.374	337.014	100.551	300.687	280.760	234.110	192.921	23.078	97.268	0.00055666	0.00050251	0.000102	1140.8	6.83e-06	1.0322e-06	1259.4	236.8	5.9625e-06	3.7721e-06	301.69	84.525	65.641	19.667	4.7364e-06	27.152	0.00023422	0.00023055	6.3465e-05	1121	2.5603e-06	2.4952e-06	1230.3	236.2	2.5392e-06	2.5365e-06	298	83.768	66.01	19.958	2.503e-06	27.487	336.579	64.126	141.401	-6.793	86.561	150.422	-6.534	0.709	95.466	144.051	0.467	7.540	7.770	14.040	222.861	13.881	-8191	255	
575.209	1	1	0	0	0.056216	0.14172	0.23716	0.40895	0.13284	0.1265	0.29856	0.23756	0.02333	0.2292	0.025155	0.16082	0.15079	0.32718	0.063457	0.13521	-2.6583	-2.7875	-3.1562	-3.4625	-2.9396	-3.3583	-3.3375	-3.1562	-3.3604	-3.0646	-3.3125	-3.3	-3.0833	-3.1542	-3.1417	-2.8875	58.336	0.698	327.191	294.363	203.439	15.943	270.473	158.699	-14.591	19.920	236.643	115.718	311.751	166.996	301.863	333.572	0.00058002	0.00022619	4.2489e-05	1139.1	2.7348e-06	6.6861e-06	1256.6	237.92	4.7616e-06	5.2014e-06	302.16	84.794	66.054	19.569	1.8668e-06	27.212	0.00023333	0.00023137	6.4099e-05	1120	2.5607e-06	2.5032e-06	1230	235.95	2.5641e-06	2.5229e-06	297.74	84.053	66.028	19.909	2.5548e-06	27.542	-15.910	17.216	128.446	-6.787	217.437	226.693	-6.471	0.765	124.057	49.750	0.587	7.402	7.529	14.018	51.408	14.134	-8191	255	
575.281	1	1	0	0	0.17719	0.13654	0.067778	0.21101	0.16015	0.016799	0.32883	0.28193	0.084391	0.18405	0.20028	0.098662	0.089148	0.26981	0.066521	0.16124	-2.8708	-2.7812	-3.2167	-3.3521	-2.8979	-3.2188	-3.3833	-3.0771	-3.3708	-3.0604	-3.2438	-3.4292	-2.95	-3.3958	-3.0229	-3.0271	166.024	139.964	251.338	326.416	66.019	125.150	277.552	277.718	-1.503	108.487	277.348	15.960	299.351	-13.678	216.578	32.117	0.00047224	0.00066245	0.00011027	1142.1	7.2407e-06	1.0188e-06	1254.5	237.93	4.0622e-06	2.5126e-06	301.84	85.598	66.1	19.512	4.4516e-06	26.952	0.00023323	0.00023395	6.3621e-05	1124	2.5483e-06	2.5196e-06	1228.4	236.35	2.52e-06	2.5386e-06	297.61	84.135	66.127	19.941	2.5427e-06	27.491	325.439	-1.944	68.416	-6.719	111.307	215.190	-6.500	0.690	187.840	100.904	0.481	7.125	7.311	14.066	78.351	13.635	-8191	255	
575.377	1	1	0	0	0.0925	0.11328	0.098995	0.17466	0.11636	0.054578	0.24849	0.14734	0.10239	0.042201	0.20176	0.17342	0.1012	0.14224	0.076861	0.22248	-3	-3.0521	-3.0167	-3.6125	-2.8625	-3.2542	-3.2417	-2.8875	-3.2583	-3.1	-3.0458	-3.3937	-2.7271	-3.1583	-3.2146	-2.8833	313.546	266.883	262.322	71.245	121.523	210.392	254.479	65.846	77.492	246.779	53.475	275.312	301.958	301.215	336.525	214.686	0.0006497	0.00033934	0.00013013	1145.2	2.0098e-06	5.8718e-06	1252.9	237.85	6.1215e-06	5.3135e-06	302.13	84.027	65.747	19.434	4.5519e-06	26.868	0.000231	0.00023009	6.458e-05	1124.5	2.5678e-06	2.5536e-06	1230.5	236.19	2.5601e-06	2.5512e-06	297.17	83.797	66.153	19.974	2.5638e-06	27.506	-3.148	18.282	208.021	-6.680	78.053	165.570	-6.560	1.116	30.149	22.079	0.433	7.363	7.527	14.129	14.213	14.237	-8191	255	
575.471	1	1	0	0	0.1349	0.14588	0.30777	0.18352	0.10369	0.060309	0.24903	0.14202	0.29356	0.089444	0.19961	0.20608	0.12718	0.29724	0.14216	0.24537	-2.9	-3.1437	-3.0438	-3.3979	-2.9375	-3.0875	-3.2792	-2.95	-3.4667	-3.0854	-3.0563	-3.3208	-2.9604	-3.2062	-3.1354	-2.7833	85.868	341.213	73.361	288.451	287.221	8.229	309.077	322.847	238.637	257.027	-3.639	-15.606	101.166	-10.423	136.953	278.460	0.00035706	0.00048253	0.00017996	1142.4	4.6454e-06	6.4329e-06	1255.3	236.3	3.9232e-06	1.1426e-06	301.69	84.229	65.815	19.528	2.3377e-06	27.194	0.00023528	0.00023542	6.5359e-05	1122.7	2.5667e-06	2.5848e-06	1229.8	235.81	2.54e-06	2.5582e-06	297.16	83.863	65.932	19.929	2.536e-06	27.476	-11.727	80.822	122.326	-6.608	114.817	251.328	-6.671	0.899	28.715	114.124	0.636	7.461	7.939	14.597	66.871	13.864	-8191	255	
575.592	1	1	0	0	0.16117	0.14589	0.032998	0.40573	0.45832	0.16924	0.24154	0.090126	0.10842	0.077554	0.14746	0.27163	0.25225	0.15089	0.022917	0.1714	-2.7542	-2.7958	-2.8771	-3.4708	-2.8875	-3.1958	-3.4562	-2.8604	-2.9938	-3.0521	-2.8625	-3.3104	-2.95	-3.0167	-3.3	-2.7979	109.375	41.507	199.720	319.096	238.795	85.255	288.097	270.392	214.643	139.969	28.410	34.179	169.764	8.224	248.523	249.624	0.00062487	0.00018123	5.3027e-05	1140.6	1.6763e-06	2.018e-06	1256.5	238.03	7.6373e-06	1.7495e-06	302.02	84.353	65.591	19.696	3.4474e-07	27.084	0.00023263	0.00022699	6.3885e-05	1123.5	2.5305e-06	2.5108e-06	1231.2	236.58	2.529e-06	2.4843e-06	297.49	83.715	65.941	19.961	2.5039e-06	27.488	-14.179	131.331	56.081	-6.602	117.724	226.707	-6.616	0.712	110.361	180.945	0.437	7.370	7.150	14.487	171.696	13.706	-8191	255	
575.688	1	1	0	0	0.16074	0.1702	0.24545	0.088248	0.23409	0.11285	0.15861	0.13829	0.026975	0.013328	0.065092	0.25653	0.18254	0.15311	0.23713	0.13524	-2.8083	-3.1625	-2.7542	-3.5417	-2.8229	-2.8958	-3.4208	-3.0667	-3.1771	-3.2146	-2.8417	-3.2562	-3.1104	-2.9	-3.3479	-2.9062	309.183	228.689	48.557	233.286	289.708	285.069	299.130	134.814	258.862	335.125	38.951	6.074	241.597	341.451	-1.627	308.248	0.00050111	0.00030745	0.00011121	1139.8	5.0208e-06	6.8637e-06	1262.4	237.23	7.6313e-06	6.1528e-06	304.49	83.917	65.824	19.504	4.5028e-06	27.037	0.00023034	0.00022758	6.3299e-05	1120.3	2.5365e-06	2.5031e-06	1230.9	235.88	2.4823e-06	2.4918e-06	297.67	83.864	65.94	19.919	2.5045e-06	27.503	-7.863	5.268	37.877	-6.531	156.139	141.041	-6.303	0.804	130.764	162.129	0.778	7.325	7.409	14.292	158.627	14.015	-8191	255	
575.784	1	1	0	0	0.12489	0.20961	0.27786	0.33729	0.23782	0.071184	0.16981	0.31774	0.2547	0.26284	0.1676	0.17351	0.089506	0.11636	0.21052	0.087166	-2.9417	-3.225	-2.7708	-3.6063	-3.0542	-2.9083	-3.5604	-3.0438	-3.1083	-3.4062	-2.9729	-3.2854	-3.15	-3.0458	-3.3875	-2.9271	306.418	231.006	290.676	266.950	191.476	-7.112	243.664	332.753	187.691	298.155	257.366	78.693	10.810	249.096	235.896	20.859	0.00064138	0.00039282	8.5191e-05	1141.5	1.8522e-06	2.174e-06	1252.5	238.05	2.5733e-06	3.1846e-06	303.2	84.491	65.486	19.503	2.1556e-06	26.763	0.00023019	0.0002293	6.3551e-05	1122.6	2.562e-06	2.5184e-06	1228.8	235.91	2.5398e-06	2.4906e-06	298.09	83.808	65.901	19.917	2.5019e-06	27.425	339.313	22.193	31.054	-6.572	269.401	25.734	-6.675	0.859	204.599	152.369	0.522	7.328	7.731	14.095	79.124	13.699	-8191	255	
575.880	1	1	0	0	0.14579	0.15255	0.20541	0.3201	0.089093	0.16023	0.13105	0.20515	0.18341	0.13861	0.17531	0.066836	0.10839	0.13087	0.098784	0.064919	-2.7021	-3.2812	-2.825	-3.3646	-3.15	-2.9042	-3.3375	-3.2333	-2.8937	-3.3542	-2.9021	-3.2521	-3.1271	-2.8729	-3.3896	-2.9875	229.978	87.042	63.546	280.629	120.774	130.840	251.886	232.887	327.871	11.143	22.068	300.313	252.918	228.854	25.255	268.471	0.00040919	0.00020686	4.4462e-05	1140.9	2.9905e-06	5.4885e-06	1258.6	235.94	2.5577e-06	8.3352e-06	303.11	84.304	65.934	19.603	3.8332e-06	27.08	0.00023053	0.00022937	6.2669e-05	1122	2.5161e-06	2.5e-06	1230.6	235.38	2.5189e-06	2.5264e-06	297.33	83.916	65.962	19.909	2.5321e-06	27.458	338.780	88.892	4.071	-6.649	82.343	135.984	-6.619	0.646	82.429	132.088	0.179	7.640	7.577	14.518	77.728	13.789	-8191	255	
575.977	1	1	0	0	0.16839	0.091391	0.30558	0.43172	0.2536	0.23541	0.21645	0.25484	0.22498	0.28706	0.099707	0.12724	0.18871	0.11983	0.052422	0.1808	-2.5083	-3.2104	-2.8625	-3.2417	-3.1521	-2.9542	-3.5187	-3.2687	-3.0042	-3.4979	-2.8604	-3.0958	-3.2708	-2.8542	-3.325	-3.2562	261.729	149.582	286.265	286.189	198.390	233.374	316.551	284.543	307.129	280.476	272.672	205.991	119.205	35.353	325.157	147.331	0.00053584	0.00031929	6.4101e-05	1142.8	4.7036e-06	5.9489e-06	1251.6	236.04	4.8883e-06	8.866e-06	302.79	84.327	65.632	19.508	3.1509e-06	27.16	0.00023514	0.00023019	6.4133e-05	1122.4	2.5709e-06	2.5115e-06	1229.5	235.48	2.5238e-06	2.508e-06	298.23	83.688	65.911	19.893	2.5315e-06	27.506	295.430	90.923	161.796	-6.554	313.199	140.726	-6.444	0.947	114.460	121.545	0.692	7.581	7.711	14.022	92.248	13.772	-8191	255	
576.073	1	1	0	0	0.065951	0.085538	0.12883	0.26947	0.15906	0.16415	0.22133	0.49005	0.069406	0.10891	0.22848	0.21738	0.25761	0.12775	0.31964	0.34197	-2.5896	-3.3604	-2.8667	-3.3625	-3.4167	-2.9062	-3.575	-3.0917	-2.7438	-3.2875	-3.0438	-3.1333	-3.2833	-2.8917	-3.1458	-3.1	140.554	180.887	326.395	299.709	93.934	48.627	226.858	299.706	251.982	315.321	290.414	311.764	331.395	-4.278	89.950	251.984	0.00049736	0.00027175	0.00011099	1143.5	4.3501e-06	5.1905e-06	1248.3	237.2	7.8047e-06	1.0295e-06	301.52	84.462	65.61	19.606	3.8097e-06	27.285	0.00023152	0.00022653	6.2542e-05	1123.2	2.4778e-06	2.4535e-06	1227.2	235.52	2.4504e-06	2.4435e-06	296.62	83.814	65.75	19.936	2.4489e-06	27.482	-1.234	154.390	69.228	-6.699	153.465	77.142	-6.586	0.622	97.211	275.080	0.755	7.245	7.729	14.126	75.369	14.088	-8191	255	
576.169	1	1	0	0	0.15232	0.13832	0.11764	0.23964	0.1938	0.12913	0.20618	0.24091	0.027528	0.23875	0.27252	0.12792	0.13014	0.11288	0.13504	0.16703	-2.4375	-3.2958	-2.9917	-3.3208	-3.4042	-2.9167	-3.2812	-3.2833	-2.9042	-3.5271	-3.1146	-2.9667	-3.3312	-2.9333	-3.2229	-3.1271	137.861	189.678	314.047	313.083	248.318	269.574	285.976	128.480	189.442	6.274	260.951	325.416	330.372	219.941	11.079	310.057	0.00041438	0.00024182	0.00019169	1141.2	7.1709e-06	4.6255e-06	1256.9	238.22	7.9542e-06	1.5289e-06	301.14	84.728	66.178	19.57	1.8269e-06	27.03	0.00022622	0.00022274	6.1802e-05	1121.4	2.4798e-06	2.457e-06	1230.8	236.1	2.4519e-06	2.4278e-06	296.57	83.887	65.899	19.881	2.4401e-06	27.432	3.095	126.214	71.371	-6.740	51.449	281.919	-6.740	0.838	170.140	88.403	0.458	6.989	7.536	14.468	88.969	14.056	-8191	255	
576.290	1	1	0	0	0.26652	0.29423	0.025131	0.34758	0.14073	0.21811	0.18105	0.083746	0.12696	0.37097	0.1363	0.014157	0.22414	0.143	0.080098	0.19677	-2.4729	-3.3646	-3.1792	-3.0917	-3.225	-3.0875	-3.475	-3.2938	-2.9083	-3.2875	-3.1833	-3.1417	-3.425	-3.0646	-3.0958	-3.4104	-13.303	246.674	151.493	311.370	320.558	130.778	-17.032	336.648	-3.283	273.249	278.386	332.559	302.608	9.846	169.803	205.895	0.00045436	0.00021643	0.00015609	1143.8	3.1109e-06	2.6872e-06	1254	237.86	2.6554e-06	4.5734e-06	301.38	83.769	65.832	19.574	2.4239e-06	26.987	0.00022489	0.00022035	6.1732e-05	1122.1	2.4301e-06	2.4433e-06	1227.8	236.11	2.4242e-06	2.4167e-06	296.86	83.679	65.924	19.898	2.4108e-06	27.418	333.527	316.514	52.316	-6.571	76.410	181.823	-6.700	0.703	117.080	178.784	0.847	7.403	7.478	14.348	60.051	13.887	-8191	255	
576.384	1	1	0	0	0.064743	0.19908	0.021461	0.25725	0.24844	0.17435	0.2979	0.12101	0.28475	0.29638	0.16142	0.17526	0.065981	0.077765	0.085788	0.14514	-2.4917	-3.2833	-3.1542	-3.0958	-3.4333	-3.1312	-3.3229	-3.5833	-3.0208	-3.2875	-3.1833	-3.0208	-3.3792	-3.2042	-3.1833	-3.2687	131.455	123.486	313.389	198.306	178.318	231.164	326.433	286.164	154.008	278.974	267.960	201.968	242.149	340.170	303.387	221.811	0.00060112	0.00031477	8.2949e-05	1142.8	3.4449e-06	8.876e-06	1251	237.94	5.0433e-06	1.6114e-06	303.09	84.123	65.662	19.52	5.0663e-06	27.146	0.00022671	0.00022415	6.2259e-05	1123	2.4312e-06	2.4632e-06	1229.4	235.55	2.4515e-06	2.4336e-06	297.21	83.67	65.825	19.902	2.4773e-06	27.386	-11.847	13.550	83.069	-6.709	82.752	147.694	-6.619	0.906	152.794	253.444	0.316	7.591	7.818	14.502	105.273	13.510	-8191	255	
576.480	1	1	0	0	0.22254	0.12428	0.22725	0.26296	0.14643	0.23819	0.2656	0.042879	0.22518	0.17682	0.30225	0.13561	0.16279	0.22738	0.27536	0.073036	-2.4667	-3.2208	-2.975	-3.0458	-3.2229	-3.0896	-3.1167	-3.5604	-3.0062	-3.2021	-3.225	-2.9292	-3.3354	-3.1771	-2.9146	-3.3042	246.807	2.866	218.229	306.720	101.829	212.576	211.132	117.183	191.280	281.546	295.466	-16.030	-1.692	230.702	69.097	256.317	0.00054207	0.00032415	6.4675e-05	1144	3.7388e-06	5.5472e-06	1258.6	237.74	1.3297e-06	2.8459e-06	303.59	84.273	65.535	19.469	4.4365e-06	26.956	0.00022734	0.00022699	6.25e-05	1123.1	2.4343e-06	2.4803e-06	1229.9	236.02	2.458e-06	2.4395e-06	297.86	83.828	65.882	19.855	2.4498e-06	27.411	-3.042	35.128	74.008	-6.727	101.685	196.863	-6.642	0.701	194.574	235.913	0.613	7.671	8.111	14.545	78.917	14.117	-8191	255	
576.576	1	1	0	0	0.24167	0.096674	0.078827	0.11647	0.10939	0.10789	0.17066	0.05544	0.061271	0.040181	0.12707	0.081238	0.031331	0.069985	0.14636	0.30026	-2.4708	-3.0354	-3.2354	-2.9313	-3.4396	-3.0792	-3.1583	-3.4917	-3.0229	-3.15	-3.5208	-2.9104	-3.4458	-3.1792	-2.8229	-3.2854	22.906	250.328	277.852	13.637	189.219	8.137	309.454	232.359	117.408	97.749	276.679	303.300	331.415	312.372	115.338	311.887	0.00047485	0.00073499	9.811e-05	1145.7	1.8338e-06	3.8417e-06	1257.9	237.71	4.6038e-06	1.4105e-06	302.16	84.121	65.899	19.419	4.4725e-06	27.024	0.00022465	0.00022319	6.0079e-05	1124.1	2.4311e-06	2.4077e-06	1230.5	235.91	2.4283e-06	2.4564e-06	297.78	83.732	65.968	19.876	2.4296e-06	27.423	-11.731	37.408	53.369	-6.397	168.279	168.762	-6.565	1.075	237.266	250.209	0.603	7.461	7.719	14.665	152.262	13.544	-8191	255	
576.672	1	1	0	0	0.1239	0.050134	0.038069	0.23627	0.35027	0.20956	0.38938	0.11941	0.24111	0.07338	0.088987	0.15129	0.13467	0.19933	0.15731	0.22129	-2.6354	-3.1437	-3.3354	-2.9729	-3.3354	-3.175	-3.1875	-3.3833	-3.0021	-3.1021	-3.4813	-2.6875	-3.325	-3.2521	-2.8521	-3.4417	216.019	38.604	115.610	277.429	184.854	127.098	276.867	300.336	17.314	252.363	248.048	30.801	342.826	333.658	46.976	195.362	0.00062204	0.00031981	5.8235e-05	1145.4	2.6276e-06	1.4166e-06	1255.7	237.47	4.17e-06	6.4035e-06	303.64	84.486	65.688	19.558	4.0736e-06	27.201	0.00022599	0.0002267	6.3138e-05	1123.3	2.4601e-06	2.4573e-06	1230.9	235.33	2.4328e-06	2.4348e-06	297.31	83.843	65.753	19.879	2.4223e-06	27.37	325.045	12.134	60.980	-6.669	18.555	67.114	-6.305	0.967	-4.118	196.568	0.573	7.729	8.056	14.268	153.574	14.051	-8191	255	
576.769	1	1	0	0	0.12829	0.174	0.34253	0.3028	0.23049	0.061829	0.31164	0.095831	0.15683	0.17831	0.13249	0.22416	0.10827	0.13556	0.075473	0.17507	-2.5229	-3.2229	-3.4042	-3.1292	-3.0875	-3.3333	-3.0729	-3.2854	-3.1104	-2.9208	-3.2333	-3.0146	-3.3167	-3.2313	-2.7562	-3.1417	311.688	101.542	215.012	324.512	294.168	143.135	239.396	228.647	283.027	125.795	128.309	315.853	326.889	291.682	113.550	126.881	0.00051095	0.0006381	7.716e-05	1145.6	8.4116e-07	1.2075e-06	1260.6	237.53	9.0842e-06	5.6952e-06	302.12	84.832	65.64	19.484	5.0666e-06	27.277	0.00022386	0.00021694	6.0727e-05	1123.8	2.3978e-06	2.3931e-06	1231.7	235.55	2.4581e-06	2.383e-06	296.51	83.75	65.695	19.809	2.3877e-06	27.442	-10.410	42.024	45.875	-6.680	220.105	244.408	-6.397	0.741	143.590	222.641	0.562	7.315	7.510	14.344	139.244	14.036	-8191	255	
576.889	1	1	0	0	0.12145	0.26404	0.18214	0.21025	0.30921	0.20474	0.15632	0.19495	0.20641	0.081836	0.048512	0.23725	0.15872	0.096924	0.1811	0.11269	-2.6229	-2.9313	-3.4375	-3.1375	-3.15	-3.4	-3.0708	-3.2542	-3.2896	-2.9813	-3.4167	-3.1958	-3.1625	-3.2875	-2.7812	-3.3854	175.016	96.187	146.077	320.823	331.029	-16.763	-2.877	321.918	318.750	15.852	77.640	341.234	238.982	47.176	33.999	21.416	0.00053979	0.00068266	0.00011867	1146.2	6.7755e-07	1.8337e-06	1263	237.26	6.6613e-06	1.1042e-06	301.45	85.048	65.923	19.509	2.37e-06	27	0.00022023	0.00021875	6.051e-05	1123.4	2.3988e-06	2.3536e-06	1230.2	235.45	2.3984e-06	2.3797e-06	297.12	83.688	65.909	19.834	2.3861e-06	27.358	340.760	53.428	36.012	-6.365	15.301	324.624	-6.529	0.870	151.628	87.486	0.525	7.659	7.489	14.285	178.865	13.866	-8191	255	
576.985	1	1	0	0	0.24666	0.1777	0.088581	0.23984	0.17031	0.24803	0.15846	0.16095	0.1858	0.15017	0.14563	0.40075	0.15726	0.16093	0.21964	0.21546	-2.8	-2.9437	-3.2687	-3.1271	-3.1542	-3.4708	-3.0208	-3.3312	-3.1688	-2.8583	-3.4	-3.2396	-3.0333	-3.325	-2.8104	-3.1792	-3.894	110.812	135.597	299.003	285.143	31.390	269.782	311.793	1.082	130.960	142.406	338.160	325.872	295.542	115.087	91.226	0.00072695	0.00034597	4.5445e-05	1143.7	5.282e-06	1.1606e-06	1257.5	238.09	4.5537e-06	1.7569e-06	300.75	83.527	65.752	19.596	3.0015e-06	27.069	0.00022247	0.00022304	6.0422e-05	1121.5	2.4705e-06	2.384e-06	1230.1	235.6	2.4106e-06	2.3799e-06	296.65	83.443	65.784	19.857	2.3445e-06	27.376	-2.146	80.760	129.120	-6.465	128.749	200.383	-6.797	0.908	80.198	241.249	0.423	7.526	7.674	14.539	130.568	14.292	-8191	255	
577.081	1	1	0	0	0.21246	0.11332	0.23003	0.2336	0.11504	0.10624	0.17563	0.22714	0.14248	0.15012	0.27027	0.16966	0.11867	0.21767	0.12542	0.18695	-2.6771	-2.8063	-3.3396	-3.2833	-3.0208	-3.4917	-3.2917	-3.2188	-3.2729	-3.0229	-3.4	-3.1521	-2.8812	-3.2438	-2.9583	-3.2083	-11.188	234.086	119.863	265.931	-14.980	305.936	287.149	324.071	288.393	218.052	238.269	326.750	259.375	298.970	152.137	329.671	0.00061087	0.00010714	0.00015013	1140.4	2.2374e-06	2.9834e-06	1253.7	237.56	5.5043e-06	3.08e-06	300.67	84.42	65.515	19.617	3.3944e-06	27.139	0.00022287	0.00021981	6.066e-05	1121.2	2.4191e-06	2.3877e-06	1227.6	235.59	2.3779e-06	2.3654e-06	296.49	83.582	65.883	19.788	2.3862e-06	27.357	-16.691	91.765	77.873	-6.668	116.682	188.915	-6.525	0.605	124.347	-1.877	0.510	7.487	7.845	14.270	28.788	13.561	-8191	255	
577.153	1	1	0	0	0.1124	0.085778	0.11732	0.1248	0.062286	0.089526	0.34971	0.16682	0.15468	0.14944	0.083965	0.17768	0.18729	0.2415	0.075511	0.21091	-2.8208	-2.8417	-3.2208	-3.2125	-2.8083	-3.3479	-3.1646	-3.0687	-3.3812	-2.8063	-3.2917	-3.1167	-2.9458	-3.3396	-3.0167	-3.2229	71.712	210.894	88.876	302.910	48.938	103.140	278.559	-10.708	-0.755	238.292	155.328	258.830	341.077	26.514	-16.977	296.432	0.00065504	0.00019674	0.00019265	1144.5	4.893e-06	4.1372e-06	1250.1	236.62	6.1599e-06	4.1965e-06	301.11	84.139	65.739	19.574	2.7169e-06	27.037	0.00022104	0.00021651	6.0221e-05	1122	2.3882e-06	2.372e-06	1227.7	235.28	2.3836e-06	2.3904e-06	296.78	83.601	65.774	19.82	2.3745e-06	27.32	338.165	-5.949	54.091	-6.765	160.551	248.666	-6.595	0.758	59.175	162.079	0.660	7.320	7.586	14.269	63.994	14.036	-8191	255	
577.272	1	1	0	0	0.27555	0.22525	0.057295	0.10297	0.054963	0.039952	0.26729	0.0097477	0.085714	0.11344	0.26806	0.13676	0.18472	0.073441	0.32103	0.22971	-2.7542	-2.8521	-3.2583	-3.3542	-2.95	-3.3542	-3.2375	-3.075	-3.1917	-2.9479	-3.2021	-3.3167	-2.7333	-3.2188	-3.1625	-3.0563	111.575	39.676	207.984	338.671	113.970	314.564	306.352	10.085	247.496	134.953	-1.372	79.105	314.832	230.020	231.854	250.813	0.0006573	0.00064007	9.8238e-05	1140.8	2.3333e-06	2.5779e-06	1252.8	237.42	5.7547e-06	2.6126e-06	300.74	84.046	65.65	19.575	4.1537e-06	26.978	0.00022146	0.00021687	6.0712e-05	1120.7	2.3947e-06	2.376e-06	1227.9	235.51	2.3654e-06	2.3753e-06	296.47	83.298	65.742	19.871	2.3819e-06	27.312	320.980	26.036	18.176	-6.562	29.638	212.211	-6.635	1.091	159.998	255.865	0.455	7.417	7.908	14.493	174.185	13.831	-8191	255	
577.368	1	1	0	0	0.17131	0.16065	0.030805	0.2241	0.26286	0.13408	0.36496	0.2442	0.13001	0.26839	0.22887	0.10652	0.32114	0.17189	0.19916	0.13722	-2.9375	-2.9354	-3.0854	-3.3417	-2.9479	-3.1292	-3.275	-2.9458	-3.4062	-3.0333	-2.9854	-3.2917	-2.9083	-3.275	-3.1292	-2.9062	298.273	322.802	313.217	239.341	107.040	82.807	313.036	340.834	329.230	64.167	11.493	226.070	333.400	267.889	168.164	293.637	0.00059818	0.00035782	0.00011207	1143	4.8074e-06	3.7454e-06	1246.6	235.84	7.3148e-06	2.4708e-06	302.05	84.541	66.006	19.433	3.1373e-06	26.983	0.00021772	0.0002195	5.9737e-05	1120.9	2.3995e-06	2.3567e-06	1225.8	234.53	2.3665e-06	2.3667e-06	296.63	83.429	65.701	19.805	2.361e-06	27.274	-11.834	78.443	173.144	-6.680	187.344	112.357	-6.467	0.748	63.155	189.119	0.442	7.473	7.663	14.274	183.582	14.121	-8191	255	
577.464	1	1	0	0	0.19637	0.056574	0.2734	0.22688	0.13155	0.038233	0.28936	0.17464	0.35097	0.11332	0.080505	0.06335	0.12349	0.15411	0.089282	0.27705	-2.8917	-2.95	-3.1458	-3.6042	-2.7958	-3.0646	-3.2667	-3.0104	-3.3021	-2.9583	-3.1479	-3.3937	-2.975	-3.125	-3.1792	-2.9771	47.957	116.211	159.755	273.581	296.642	339.830	273.362	123.036	36.995	197.943	-6.771	225.075	34.998	287.691	292.175	200.394	0.00039812	0.00037437	9.5937e-05	1142.9	6.8534e-06	4.0766e-06	1256.1	236.13	8.546e-06	4.1335e-06	302.81	84.329	65.48	19.345	3.5654e-06	26.892	0.00022204	0.00021502	6.0297e-05	1121.5	2.3708e-06	2.3587e-06	1228	234.81	2.3769e-06	2.3459e-06	297.11	83.551	65.587	19.805	2.3543e-06	27.263	337.061	66.598	6.798	-6.816	36.186	207.630	-6.572	0.855	158.672	163.730	0.448	7.706	7.745	14.174	115.076	13.497	-8191	255	
577.560	1	1	0	0	0.26793	0.20512	0.31005	0.15911	0.13361	0.083449	0.19257	0.058433	0.1805	0.10084	0.16559	0.29612	0.098648	0.1139	0.1219	0.14448	-2.9583	-3.0812	-2.9521	-3.4583	-2.9875	-3.0354	-3.5458	-2.7875	-3.3792	-3.1688	-3.0667	-3.5083	-3.0354	-3.1417	-3.3604	-2.975	290.182	221.787	295.988	-14.047	126.741	35.372	189.947	215.696	253.177	299.503	138.903	6.361	162.976	22.035	124.638	239.433	0.00037226	0.00036985	0.0001985	1140.6	4.5811e-06	3.9193e-06	1253.1	237.68	5.1335e-06	5.1315e-06	299.51	84.042	65.462	19.485	4.3363e-06	26.986	0.00021841	0.00021351	5.9566e-05	1119.8	2.353e-06	2.3489e-06	1228.1	235.4	2.3572e-06	2.3542e-06	295.48	83.549	65.682	19.817	2.3345e-06	27.337	-13.932	63.961	78.007	-6.695	90.523	29.956	-6.525	0.668	193.738	328.012	0.729	7.723	7.714	14.081	66.943	14.158	-8191	255	
577.681	1	1	0	0	0.17107	0.17051	0.1891	0.23267	0.12013	0.084775	0.11171	0.14262	0.13189	0.24872	0.38928	0.19478	0.16303	0.17096	0.14713	0.1848	-2.9688	-3.1583	-2.8312	-3.4146	-2.9458	-3.0833	-3.5917	-3.1479	-3.1437	-3.0771	-2.9188	-3.3187	-3.0438	-2.9938	-3.3354	-2.9	267.694	16.218	307.413	335.342	126.602	125.695	186.692	315.678	221.438	147.618	255.987	218.733	282.351	17.113	110.301	237.395	0.00071116	0.00029403	3.2759e-05	1142.5	3.7078e-06	4.2036e-06	1252.8	236.83	6.1219e-06	1.9348e-06	301.72	83.602	65.245	19.59	2.4178e-06	27.044	0.00021997	0.00021661	6.085e-05	1120.7	2.3799e-06	2.3784e-06	1226.4	235.28	2.4116e-06	2.3911e-06	296.62	83.386	65.62	19.835	2.431e-06	27.355	-16.604	-16.746	230.567	-6.485	173.042	152.007	-6.484	0.755	172.024	300.756	0.748	7.704	7.672	14.569	176.419	13.568	-8191	255	
577.777	1	1	0	0	0.068609	0.031643	0.043343	0.30137	0.15463	0.22633	0.3008	0.20356	0.19887	0.27794	0.11035	0.24673	0.066475	0.34617	0.21542	0.11736	-2.7417	-3.0854	-2.8479	-3.4792	-3.0646	-3.1562	-3.4604	-3.1188	-3.0333	-3.3458	-2.9	-3.4688	-3.3563	-2.9062	-3.4021	-3.025	52.208	333.933	279.797	289.190	178.909	141.601	260.340	61.912	170.947	60.379	254.666	28.873	15.093	-14.834	202.034	189.288	0.00056314	0.00047269	8.6176e-05	1141	8.1496e-06	3.2271e-06	1249.2	236.78	1.7862e-06	1.026e-06	301.5	84.268	65.506	19.496	3.0179e-06	27.178	0.00022149	0.00021668	6.045e-05	1121.4	2.3958e-06	2.3913e-06	1225.7	235.03	2.3873e-06	2.3839e-06	296.56	83.601	65.778	19.877	2.3554e-06	27.42	319.787	318.566	115.514	-6.746	85.978	87.265	-6.427	0.797	140.700	14.057	0.551	7.244	7.672	14.130	132.389	14.035	-8191	255	
577.849	1	1	0	0	0.089594	0.076996	0.12065	0.2649	0.17491	0.2251	0.088446	0.19245	0.054819	0.16457	0.11185	0.18525	0.078429	0.13465	0.19779	0.081288	-2.6688	-3.3646	-2.8438	-3.3792	-3.1292	-2.9437	-3.5563	-3.3104	-3.15	-3.2562	-2.9458	-3.3333	-3.1854	-2.7917	-3.4208	-3.0583	245.693	90.314	47.062	325.958	114.086	205.115	280.172	308.106	262.493	341.500	259.602	221.427	24.704	139.203	108.661	64.195	0.00058312	0.0003697	8.4381e-06	1138.9	8.4663e-06	4.2921e-06	1253.3	237.19	2.8101e-06	2.4453e-06	302.04	84.01	65.909	19.451	3.6251e-06	27.216	0.00022078	0.00021503	5.9814e-05	1121.1	2.3645e-06	2.3621e-06	1228.2	235.24	2.3874e-06	2.3867e-06	296.26	83.316	65.809	19.843	2.4164e-06	27.326	-5.185	-2.552	306.866	-6.704	91.063	206.045	-6.687	0.767	49.424	128.865	0.760	7.749	7.686	14.515	181.824	13.918	-8191	255	
577.970	1	1	0	0	0.055491	0.33433	0.16505	0.31165	0.23777	0.15514	0.14474	0.16597	0.10881	0.10536	0.052379	0.20679	0.15129	0.27513	0.045	0.12453	-2.7125	-3.275	-2.9146	-3.45	-3.2417	-2.8375	-3.5583	-3.1875	-2.8875	-3.3458	-2.9521	-3.2062	-3.2562	-3.0062	-3.3354	-3.2062	280.071	181.599	254.603	305.942	114.555	101.841	217.517	192.702	302.434	-6.777	-15.627	181.431	2.779	123.165	206.913	174.896	0.00056344	0.00036484	0.00012836	1138.8	7.8988e-06	3.7322e-06	1254.4	236.92	1.4422e-06	2.4977e-06	302.28	84.184	65.715	19.504	1.1051e-06	26.881	0.00022273	0.00021595	6.1114e-05	1122.1	2.4102e-06	2.3825e-06	1227.1	235.58	2.4428e-06	2.3938e-06	297.07	83.786	65.709	19.877	2.3931e-06	27.364	323.719	84.713	102.382	-6.552	95.497	228.777	-6.334	0.963	40.728	160.383	0.731	8.117	7.750	14.106	65.797	13.962	-8191	255	
578.066	1	1	0	0	0.20346	0.058118	0.15279	0.17518	0.21164	0.051136	0.22991	0.25583	0.13482	0.23455	0.13906	0.18986	0.14801	0.17163	0.12045	0.2246	-2.675	-3.3396	-2.95	-3.3646	-3.2417	-2.8833	-3.5917	-3.2396	-2.9	-3.5333	-3.1063	-3.2208	-3.3458	-2.7604	-3.0854	-3.1521	67.053	4.180	100.697	237.696	236.498	270.754	294.313	276.652	66.772	286.401	8.500	337.001	302.758	218.575	299.824	35.241	0.00058645	0.00016796	0.00012644	1144.8	7.5265e-06	1.3933e-06	1253.8	236.72	5.7829e-06	5.1501e-06	301.93	84.27	65.619	19.644	3.217e-06	27.034	0.00021907	0.00021674	6.0558e-05	1120.8	2.4007e-06	2.3882e-06	1229.2	234.73	2.3965e-06	2.3763e-06	296.99	83.557	65.715	19.854	2.3828e-06	27.386	-12.043	194.287	66.775	-6.682	75.725	253.189	-6.459	1.010	300.005	143.570	0.676	7.826	7.674	14.258	221.699	14.059	-8191	255	
578.162	1	1	0	0	0.16647	0.20195	0.2229	0.21255	0.29305	0.24208	0.30136	0.25885	0.19757	0.15586	0.10451	0.049674	0.15258	0.20824	0.17912	0.1745	-2.2854	-3.0812	-2.9833	-3.175	-3.2354	-2.7729	-3.3292	-3.1	-2.9771	-3.3104	-2.9479	-2.9521	-3.4688	-2.9729	-3.175	-3.25	106.528	308.534	217.195	330.066	172.196	-4.087	333.136	-13.908	122.172	269.536	229.382	269.837	262.858	21.704	265.508	-13.125	0.00067568	0.00044715	0.0001289	1138.4	2.9118e-06	4.6911e-06	1256	237.95	1.8183e-06	2.9007e-06	303.32	84.334	65.457	19.621	5.712e-06	26.994	0.00022381	0.00021576	6.0835e-05	1120.9	2.4324e-06	2.4079e-06	1228.7	235.74	2.4042e-06	2.4118e-06	297.25	83.809	65.792	19.903	2.3931e-06	27.435	-13.986	136.191	36.372	-6.491	154.901	140.936	-6.571	0.750	61.934	101.523	0.726	7.489	7.729	14.392	83.703	14.117	-8191	255	
578.258	1	1	0	0	0.11901	0.18206	0.16796	0.35303	0.015322	0.16468	0.30845	0.34979	0.25804	0.070942	0.16289	0.034601	0.33537	0.27883	0.21581	0.15685	-2.4188	-3.2313	-3.0417	-3.0979	-3.2292	-2.9729	-3.4521	-3.2458	-3.0667	-3.3917	-3.1521	-2.8688	-3.4	-2.9479	-3.2896	-3.3646	47.822	181.291	100.415	309.735	173.652	229.895	291.450	329.389	339.340	65.178	243.648	283.208	329.143	95.901	95.116	299.703	0.00078352	0.00010699	3.9499e-05	1138.9	4.9158e-06	6.3245e-06	1256.9	237.39	1.0253e-05	5.9057e-06	302.11	84.667	65.661	19.58	4.5324e-06	27.043	0.00022205	0.00021641	5.9769e-05	1120.9	2.4192e-06	2.376e-06	1228.4	235.35	2.3715e-06	2.3599e-06	296.91	83.656	65.856	19.889	2.3812e-06	27.398	338.808	67.883	37.434	-6.367	86.324	148.980	-6.682	0.798	98.163	156.514	0.661	7.422	7.851	14.362	22.571	13.690	-8191	255	
578.377	1	1	0	0	0.094564	0.028648	0.052665	0.19203	0.16753	0.18313	0.16131	0.13766	0.19451	0.17336	0.13848	0.084959	0.2513	0.08613	0.10566	0.14059	-2.5563	-3.3125	-3.0875	-3.0792	-3.3646	-3.0417	-3.25	-3.2583	-2.8312	-3.2667	-3.0125	-3.0417	-3.5417	-3.0083	-2.9896	-3.3542	151.312	276.842	154.223	298.935	268.540	325.638	300.197	335.589	318.505	145.220	201.055	242.255	318.056	42.342	256.926	-13.451	0.00064453	0.00011593	0.00011545	1145.5	5.4587e-06	3.0382e-06	1251.1	236.6	6.1072e-06	3.4039e-06	300.56	84.891	65.746	19.532	5.9275e-06	26.965	0.00022257	0.00022035	6.0915e-05	1122.1	2.4051e-06	2.4335e-06	1227.6	235.3	2.4298e-06	2.404e-06	296.56	83.817	65.712	19.881	2.3966e-06	27.324	326.728	-2.483	327.665	-6.562	158.818	11.940	-6.429	0.743	149.745	211.588	0.567	7.193	7.349	14.768	91.486	14.223	-8191	255	
578.449	1	1	0	0	0.066725	0.053281	0.26448	0.12357	0.26337	0.28709	0.11705	0.21031	0.0615	0.1536	0.09998	0.23382	0.14795	0.065761	0.1357	0.1521	-2.375	-3.2167	-3.0896	-3.1333	-3.4125	-3.15	-3.1625	-3.3312	-2.8479	-3.1479	-3.2521	-2.9958	-3.3563	-3.0708	-2.9833	-3.3708	53.432	11.623	228.661	294.113	103.394	264.673	326.597	19.907	229.684	208.257	21.623	282.716	259.667	296.887	226.737	34.084	0.00058091	0.00028257	0.00018005	1139.2	2.9272e-06	4.9617e-06	1250.8	237.23	4.5911e-06	1.086e-06	301.35	84.061	65.749	19.338	5.0558e-06	27.094	0.00022224	0.00021897	6.0561e-05	1120.5	2.4134e-06	2.3814e-06	1228.2	234.92	2.4423e-06	2.4459e-06	296.83	83.612	65.762	19.798	2.3906e-06	27.41	326.545	151.027	40.814	-6.623	94.799	234.740	-6.546	0.851	148.317	302.706	0.697	8.077	7.738	14.207	136.136	13.544	-8191	255	
578.569	1	1	0	0	0.19055	0.096258	0.21054	0.2625	0.24824	0.076934	0.24733	0.37146	0.056857	0.10383	0.047491	0.066573	0.12318	0.12777	0.018081	0.3632	-2.5208	-3.1396	-3.3708	-3.1063	-3.3271	-3.0792	-2.9396	-3.2875	-2.8708	-3.1958	-3.4292	-2.775	-3.3917	-3.1042	-2.9104	-3.3771	86.768	-10.097	322.736	289.384	168.961	197.902	279.032	237.770	-3.615	149.871	113.231	316.584	243.826	240.388	54.291	246.717	0.0006114	8.8363e-05	0.00011893	1148	4.9147e-06	4.5097e-06	1253.4	235.47	3.4203e-06	2.9653e-06	300.33	84.117	65.339	19.437	2.7444e-06	27.041	0.00022237	0.00022144	6.0865e-05	1123.6	2.3876e-06	2.3911e-06	1227.7	234.44	2.454e-06	2.4197e-06	296.64	83.527	65.74	19.872	2.4055e-06	27.411	337.908	166.818	88.081	-6.501	232.945	303.142	-6.644	0.902	310.771	148.900	0.724	7.500	8.160	14.407	205.579	14.094	-8191	255	
578.665	1	1	0	0	0.068316	0.18036	0.16855	0.2338	0.17142	0.079756	0.47763	0.2858	0.18839	0.11552	0.18632	0.065897	0.095382	0.25736	0.27333	0.15233	-2.5979	-3.0646	-3.3625	-3.025	-3.2917	-3.1646	-3.0479	-3.4667	-3.0708	-3.1604	-3.4104	-2.7708	-3.2438	-3.2	-3.0125	-3.4146	204.383	215.556	162.445	-5.814	137.387	331.857	287.758	297.423	47.512	100.196	214.980	298.720	187.370	-10.729	7.436	95.985	0.00056596	0.00041063	8.9362e-05	1143.2	5.4942e-06	4.2969e-06	1257.7	236.78	6.1407e-06	2.8024e-06	300.5	83.933	65.297	19.527	6.6906e-06	26.936	0.00022665	0.00022093	6.2257e-05	1122	2.4549e-06	2.4152e-06	1230.2	234.71	2.4582e-06	2.4743e-06	296.6	83.613	65.762	19.887	2.4418e-06	27.387	-11.761	84.603	70.389	-6.554	140.855	159.320	-6.520	1.148	153.600	241.334	0.744	7.534	7.661	14.316	56.254	14.299	-8191	255	
578.761	1	1	0	0	0.24242	0.12237	0.083738	0.094947	0.13611	0.13542	0.18366	0.14562	0.089241	0.15975	0.17347	0.06413	0.031501	0.21714	0.27638	0.061198	-2.6333	-3.0771	-3.3771	-3.1833	-3.1958	-3.3688	-2.9813	-3.5812	-3.1	-2.9417	-3.4917	-3.0021	-3.1792	-3.2417	-2.9396	-3.1104	286.003	228.789	281.036	293.568	109.230	150.903	303.391	305.922	122.181	243.492	282.366	1.818	327.754	102.703	52.720	183.214	0.00037867	0.00051294	7.0662e-05	1142	4.2753e-07	1.7609e-06	1254.1	236.22	1.1034e-06	2.0637e-06	300.81	84.622	65.526	19.547	4.4626e-06	26.988	0.00022471	0.00022774	6.2205e-05	1122.2	2.4642e-06	2.4519e-06	1227.1	235.02	2.4275e-06	2.4208e-06	296.02	83.804	65.859	19.807	2.4473e-06	27.322	327.472	22.657	191.852	-6.502	161.828	225.004	-6.610	0.810	129.149	221.965	0.451	7.645	7.674	14.047	189.598	13.835	-8191	255	
578.858	1	1	0	0	0.14197	0.18832	0.2041	0.059507	0.031248	0.21172	0.2538	0.23307	0.12302	0.087998	0.10029	0.059184	0.28786	0.15429	0.23634	0.062547	-2.7	-2.9437	-3.2271	-3.0083	-3.0438	-3.2	-2.9583	-3.3083	-3.1562	-2.9604	-3.4229	-3.05	-3.0667	-3.2438	-2.8292	-3.2958	71.170	136.116	238.057	103.551	281.989	23.744	274.061	178.373	146.420	235.495	249.657	295.549	300.147	255.226	280.236	196.525	0.00044628	0.00018034	7.591e-05	1139.9	4.8907e-06	5.8747e-06	1253.7	237.07	6.0578e-06	4.6368e-06	300.55	84.298	65.945	19.524	8.0492e-07	27.053	0.00022562	0.0002232	6.237e-05	1120.8	2.4589e-06	2.4005e-06	1228.3	235.32	2.4382e-06	2.4722e-06	296.37	83.493	65.79	19.878	2.407e-06	27.367	-13.643	299.164	337.062	-6.597	117.892	118.314	-6.428	1.149	133.840	122.855	0.815	7.282	7.698	14.804	108.184	14.232	-8191	255	
578.978	1	1	0	0	0.069527	0.25941	0.27447	0.22428	0.12133	0.12271	0.27368	0.12709	0.11879	0.10969	0.092237	0.21315	0.14498	0.17332	0.056106	0.030025	-2.5833	-2.8875	-3.5042	-3.1104	-3.1437	-3.3458	-3	-3.2313	-3.1646	-2.8708	-3.3604	-3.0938	-2.975	-3.4042	-2.8083	-3.3396	166.271	44.082	188.139	230.874	293.503	12.372	278.380	333.694	201.066	216.068	168.720	65.882	243.105	118.299	326.068	138.206	0.00062499	0.0005585	0.00018454	1142.1	2.9386e-06	1.6104e-06	1255.3	235.63	2.0052e-06	3.7577e-06	301.21	83.934	65.475	19.521	4.5435e-06	27.072	0.00022156	0.00021618	6.0391e-05	1120.8	2.3754e-06	2.4014e-06	1227.4	234.53	2.3841e-06	2.3718e-06	296.45	83.302	65.536	19.849	2.3437e-06	27.359	316.843	327.754	97.177	-6.544	78.666	6.799	-6.729	0.708	111.833	235.799	0.652	7.520	7.878	14.124	119.686	13.442	-8191	255	
579.074	1	1	0	0	0.15329	0.090914	0.05662	0.17496	0.14711	0.17158	0.02909	0.27993	0.1699	0.064928	0.10638	0.1025	0.22735	0.031736	0.1559	0.19902	-2.8333	-2.7625	-3.3542	-3.2167	-2.8187	-3.2438	-3.0333	-3.2479	-3.1396	-2.8208	-3.4521	-3.0958	-3.0438	-3.3771	-2.9229	-3.1542	285.723	221.134	325.005	326.895	225.716	275.918	58.852	316.997	-10.540	29.721	340.867	212.568	300.558	90.900	161.903	51.480	0.00057963	7.224e-05	0.00012287	1144	3.0733e-06	9.703e-07	1251	235.51	8.6096e-06	3.4508e-06	300.98	84.015	65.184	19.371	2.4672e-06	26.72	0.00022001	0.00021486	6.0111e-05	1120.7	2.346e-06	2.3624e-06	1226.5	234.81	2.3635e-06	2.3691e-06	295.83	83.374	65.626	19.806	2.4072e-06	27.326	2.252	132.775	154.766	-6.526	-12.471	95.753	-6.589	0.889	166.864	145.561	0.679	7.407	8.012	14.796	283.598	13.758	-8191	255	
579.146	1	1	0	0	0.11288	0.29735	0.42602	0.22817	0.070126	0.096549	0.41891	0.34615	0.13547	0.30038	0.063783	0.26993	0.19101	0.11998	0.14586	0.14739	-2.9062	-2.9354	-3.0958	-3.225	-2.8583	-3.3208	-2.9958	-3.1875	-3.1167	-2.8271	-3.4062	-3.2229	-2.8354	-3.5021	-2.9417	-3.0021	115.214	315.446	244.178	335.857	86.052	111.920	321.407	274.789	300.444	232.053	311.546	244.368	230.170	231.891	18.696	299.231	0.00022085	0.00027721	8.0291e-05	1137.8	4.0327e-06	1.6703e-06	1246.7	234.9	1.4209e-06	3.986e-06	301.63	83.864	65.316	19.516	1.7128e-06	26.715	0.00022005	0.0002186	5.9873e-05	1120.5	2.3923e-06	2.3804e-06	1224.5	234.26	2.4018e-06	2.3915e-06	295.84	83.398	65.642	19.799	2.4083e-06	27.297	341.919	108.632	103.694	-6.723	135.696	39.740	-6.610	0.995	205.659	197.129	1.047	7.430	7.974	14.341	199.486	13.742	-8191	255	
579.242	1	1	0	0	0.074136	0.4099	0.15011	0.39641	0.13802	0.1739	0.11585	0.40085	0.14711	0.095788	0.15024	0.31491	0.23367	0.03872	0.22295	0.20595	-2.8625	-2.8604	-3.25	-3.3583	-2.9292	-3.2833	-3.1104	-2.9917	-3.2396	-2.85	-3.2021	-3.4292	-2.9146	-3.4333	-3.1104	-3.0417	59.078	244.873	277.718	322.855	209.849	72.953	342.077	262.457	20.879	222.027	7.007	-13.829	341.737	41.002	267.100	305.301	0.00055864	0.00011632	8.1752e-05	1144.6	7.0025e-06	1.703e-06	1248	236.64	3.6761e-06	4.7033e-06	300.6	84.091	65.758	19.459	3.2417e-06	26.886	0.00022296	0.00022126	6.1554e-05	1120.3	2.4192e-06	2.4039e-06	1225.7	234.72	2.4117e-06	2.383e-06	296.71	83.558	65.763	19.79	2.3676e-06	27.261	341.599	33.170	82.879	-6.601	124.668	-11.239	-6.311	0.750	96.395	178.007	0.885	7.816	7.780	13.920	165.454	13.672	-8191	255	
579.338	1	1	0	0	0.067506	0.091113	0.28926	0.21914	0.13964	0.17565	0.37061	0.07477	0.16559	0.15808	0.20498	0.31818	0.25024	0.19652	0.18522	0.26764	-3.1229	-2.9854	-3.175	-3.3438	-2.7958	-3.4167	-3.2438	-3.0917	-3.3125	-2.9	-3.2771	-3.2083	-2.6604	-3.4354	-3.0271	-3.1583	330.875	96.261	124.356	4.033	2.691	231.104	280.270	121.884	212.541	261.436	297.635	304.694	-5.136	265.296	291.278	-1.815	0.00035863	0.00019045	9.7772e-05	1134.8	6.0062e-06	2.5244e-06	1252.2	236.17	9.052e-06	5.2847e-06	301.43	83.717	65.714	19.537	3.8819e-06	27.167	0.00021729	0.00021601	5.9515e-05	1118.1	2.37e-06	2.345e-06	1227.6	234.56	2.3459e-06	2.3635e-06	296.42	83.426	65.727	19.78	2.3267e-06	27.333	296.615	-12.934	134.689	-6.358	109.388	172.590	-6.591	1.125	137.483	116.960	0.729	7.852	7.701	14.761	48.947	14.137	-8191	255	
579.457	1	1	0	0	0.052233	0.22992	0.060707	0.27879	0.20357	0.17979	0.10146	0.13106	0.16072	0.22648	0.15123	0.12841	0.15458	0.19635	0.16559	0.21975	-3.0271	-3.1604	-3.1437	-3.5208	-2.8417	-3.3812	-3.4854	-2.9458	-3.3063	-2.9667	-2.9188	-3.3625	-2.975	-3.2667	-3.1813	-2.8958	265.143	194.036	236.718	305.059	62.607	289.767	30.721	287.415	56.249	326.818	24.344	9.724	268.656	266.485	113.562	191.080	0.00052192	0.00030462	0.0001644	1139.1	4.6923e-06	2.7477e-06	1254.6	235.55	4.0995e-06	6.8601e-06	300.02	84.21	65.351	19.467	3.7857e-06	26.948	0.0002191	0.00021858	6.1262e-05	1119.9	2.4401e-06	2.3873e-06	1226.5	234.14	2.396e-06	2.4056e-06	294.93	83.394	65.48	19.73	2.3869e-06	27.254	340.168	50.179	78.010	-6.464	63.669	68.336	-6.683	1.000	68.756	183.269	0.657	7.509	8.001	14.322	152.755	13.839	-8191	255	
579.553	1	1	0	0	0.094052	0.18736	0.21464	0.36988	0.12941	0.18969	0.16953	0.22923	0.0805	0.056253	0.080218	0.24238	0.1849	0.17405	0.060352	0.096289	-3.025	-3.0417	-2.8771	-3.5417	-3.0062	-3.2083	-3.3958	-2.9479	-3.0542	-2.9875	-3.0333	-3.5646	-2.8792	-3.2958	-3.1625	-2.7479	134.573	23.755	311.465	291.521	-5.849	153.273	274.925	275.586	317.562	5.875	341.690	244.413	322.340	-15.325	115.737	156.112	0.00073087	0.00064274	0.00013467	1144.5	4.3015e-06	5.8134e-06	1252.8	235.42	5.2481e-06	2.5379e-06	299.15	84.725	65.491	19.536	3.5114e-06	26.96	0.00022199	0.00022122	6.0655e-05	1120	2.4264e-06	2.3762e-06	1224.3	234.47	2.401e-06	2.4073e-06	295.15	83.413	65.488	19.824	2.3939e-06	27.311	-16.467	333.204	131.491	-6.573	90.215	142.672	-6.434	0.677	130.590	157.049	1.123	7.580	7.909	14.830	142.005	14.189	-8191	255	
579.650	1	1	0	0	0.05644	0.087834	0.24263	0.24022	0.080128	0.17739	0.22692	0.16051	0.11316	0.061993	0.14313	0.14763	0.04036	0.037168	0.38005	0.10662	-2.8104	-3.0292	-2.8729	-3.3583	-2.7583	-2.8833	-3.4479	-2.8937	-3.1667	-2.9917	-2.7583	-3.5417	-2.9417	-3.2208	-3.1437	-2.7354	44.549	312.312	156.079	25.115	143.926	193.506	308.755	275.426	0.186	206.809	-10.191	276.856	332.600	295.704	187.388	36.913	0.00046447	0.0002181	0.00019432	1140.9	4.0091e-06	5.8018e-06	1251	237.16	4.5077e-06	5.1182e-06	299.91	84.33	65.414	19.429	3.3481e-06	26.97	0.0002212	0.00021952	6.1412e-05	1118.7	2.3923e-06	2.3908e-06	1226	235.28	2.3983e-06	2.3714e-06	296.03	83.432	65.619	19.802	2.3626e-06	27.266	330.167	61.709	86.190	-6.551	56.542	235.165	-6.390	0.883	123.383	141.359	0.842	7.706	7.912	14.071	74.745	14.160	-8191	255	
579.746	1	1	0	0	0.043327	0.057168	0.070388	0.24704	0.30181	0.11729	0.22721	0.1025	0.2105	0.34054	0.14814	0.27203	0.11867	0.3247	0.020793	0.1733	-2.7646	-3.0667	-2.8583	-3.3771	-2.8042	-2.8604	-3.55	-2.8521	-3.0812	-3.2188	-2.9125	-3.225	-3.0708	-3.0875	-3.2771	-2.9396	121.723	134.138	103.056	252.098	306.610	75.151	260.976	304.605	45.361	166.138	14.376	228.648	70.420	324.014	34.389	308.027	0.00067971	0.00049097	8.3836e-05	1137.5	2.7416e-06	3.6865e-06	1248.7	236.25	1.5293e-06	3.1097e-06	301.55	84.215	65.832	19.458	3.6987e-06	26.887	0.00022039	0.00021392	6.1161e-05	1119.1	2.41e-06	2.3592e-06	1223.1	234.3	2.4383e-06	2.3799e-06	296.29	83.384	65.584	19.748	2.3822e-06	27.245	328.466	10.425	56.954	-6.704	151.480	297.972	-6.331	0.935	149.287	117.230	0.970	7.804	7.781	14.133	73.371	14.185	-8191	255	
579.842	1	1	0	0	0.068496	0.2083	0.11131	0.18139	0.18269	0.061238	0.24434	0.14944	0.10779	0.14262	0.18889	0.21527	0.18031	0.12261	0.26159	0.18312	-2.7562	-3.1979	-2.8417	-3.3333	-3.0458	-2.9896	-3.5	-3.0208	-2.9437	-3.3646	-3.05	-3.25	-3.2854	-3.0229	-3.2583	-3.1312	63.700	116.205	234.853	334.556	181.379	274.826	240.641	270.252	334.177	85.546	17.416	274.849	331.989	341.014	250.442	212.745	0.00048394	0.0002711	3.6149e-05	1138.7	8.0955e-06	7.6342e-06	1251.1	236.45	4.4334e-06	2.9835e-06	301.36	84.191	65.31	19.422	4.7663e-07	26.887	0.00022115	0.00021764	6.0532e-05	1119.4	2.3862e-06	2.3904e-06	1224.9	234.49	2.4292e-06	2.4126e-06	295.74	83.384	65.462	19.787	2.4127e-06	27.318	-13.294	334.258	244.411	-6.587	86.768	95.201	-6.640	0.786	106.981	184.606	0.770	7.447	7.717	14.060	99.509	14.041	-8191	255	
579.938	1	1	0	0	0.091327	0.31013	0.033207	0.15815	0.19289	0.081363	0.10619	0.13982	0.20088	0.074483	0.14972	0.21661	0.074751	0.073633	0.27746	0.17989	-2.5354	-3.2771	-2.8104	-3.2979	-3.3708	-2.9292	-3.5312	-2.9667	-3.0708	-3.3104	-2.9333	-3.2542	-3.1688	-3.0708	-3.4417	-3.0604	-15.391	138.236	217.705	265.825	276.487	247.688	321.796	157.462	138.713	279.454	202.176	22.072	315.252	241.948	5.039	308.298	0.00058567	0.00019772	7.8128e-05	1138.6	2.4428e-06	2.4333e-06	1249.2	237.88	7.4033e-06	2.4521e-06	298.51	83.997	65.564	19.53	4.7158e-06	26.921	0.00022634	0.0002212	6.0871e-05	1118.6	2.4412e-06	2.4125e-06	1226.2	235.05	2.4477e-06	2.4133e-06	295.15	83.391	65.596	19.769	2.4325e-06	27.265	320.215	-0.945	141.776	-6.471	119.755	238.221	-6.510	1.089	102.522	198.421	0.698	7.459	7.314	14.294	88.663	13.910	-8191	255	
580.059	1	1	0	0	0.043933	0.13771	0.23553	0.16229	0.33287	0.10432	0.15524	0.11883	0.12348	0.19939	0.14242	0.15215	0.19793	0.056723	0.0412	0.2065	-2.5021	-3.3396	-2.9771	-3.4146	-3.3688	-2.9792	-3.5083	-3.0812	-2.8646	-3.3958	-3.0875	-3.1542	-3.3312	-2.8271	-3.2083	-2.9854	292.141	22.846	92.905	232.009	179.694	218.874	306.350	251.476	57.317	31.983	254.415	40.473	80.121	143.268	144.717	226.489	0.00071495	0.00046304	0.00011465	1138.7	3.1017e-07	6.0523e-06	1251.6	236.32	2.5901e-06	6.8045e-06	300.02	83.914	65.248	19.682	1.8353e-06	27.033	0.00022333	0.00022061	6.171e-05	1119	2.4298e-06	2.391e-06	1225.5	234.43	2.4208e-06	2.4014e-06	295.92	83.473	65.45	19.857	2.4049e-06	27.385	3.577	269.121	101.168	-6.523	201.391	114.057	-6.593	1.059	204.275	74.826	0.697	7.503	7.667	14.711	204.153	13.705	-8191	255	
580.155	1	1	0	0	0.21964	0.13249	0.20085	0.29054	0.26009	0.13827	0.20481	0.24563	0.13499	0.22746	0.1038	0.17217	0.1831	0.28278	0.11137	0.022672	-2.5604	-3.1729	-2.8354	-3.2938	-3.3354	-2.8521	-3.2729	-3.2812	-2.9188	-3.5062	-3.1792	-3.1167	-3.3521	-2.825	-3.275	-3.1813	29.609	86.266	165.570	234.424	105.360	154.916	318.360	303.525	339.608	22.354	-5.680	95.169	157.436	309.658	183.803	98.086	0.00062345	0.00023239	0.00013741	1136.1	3.0524e-06	2.7684e-06	1251.2	236.18	3.9638e-06	6.3977e-06	299.87	84.21	65.496	19.345	1.1915e-06	26.877	0.00022269	0.00021733	6.097e-05	1118.8	2.4081e-06	2.384e-06	1226.8	234.42	2.409e-06	2.3694e-06	296.29	83.514	65.571	19.784	2.3706e-06	27.305	-13.553	115.562	26.841	-6.420	295.403	130.952	-6.534	0.875	204.341	104.468	0.855	7.428	8.109	14.110	133.912	14.001	-8191	255	
580.251	1	1	0	0	0.10154	0.095875	0.48604	0.22882	0.22945	0.15847	0.30152	0.063158	0.17018	0.25895	0.289	0.35376	0.22999	0.18276	0.067419	0.17862	-2.5229	-3.2667	-2.9396	-3.2646	-3.2021	-2.7667	-3.3563	-3.2667	-3.0146	-3.1958	-3.1562	-3.1771	-3.3458	-2.775	-3.0979	-3.25	147.168	298.369	227.921	301.238	153.197	256.285	301.157	199.685	174.848	116.462	315.034	234.963	263.548	142.646	84.748	-13.362	0.0004585	0.00031456	6.686e-05	1133.2	1.5648e-06	3.9518e-06	1248.1	235.85	7.0152e-06	2.0635e-06	299.75	84.469	65.492	19.534	6.3266e-06	26.878	0.00022489	0.00021935	6.0512e-05	1118.8	2.4251e-06	2.4383e-06	1224.7	234.5	2.3962e-06	2.3603e-06	295.64	83.525	65.75	19.8	2.3749e-06	27.301	-7.092	57.924	143.616	-6.549	281.074	152.840	-6.562	0.738	124.444	67.837	0.942	7.533	7.691	14.107	181.293	14.145	-8191	255	
580.347	1	1	0	0	0.21571	0.27937	0.35015	0.0075653	0.11998	0.34982	0.16559	0.22727	0.20684	0.26265	0.015604	0.067634	0.19524	0.039634	0.057457	0.075959	-2.5771	-3.2687	-2.9604	-3.0687	-3.2562	-2.8375	-3.2958	-3.2729	-2.7146	-3.2417	-3.25	-2.975	-3.3667	-2.8	-2.9562	-3.2104	136.789	20.816	321.210	29.146	92.644	139.161	324.281	331.323	312.527	312.603	339.498	337.431	332.082	288.892	65.976	298.491	0.00040329	0.00042845	0.00012275	1137.1	4.5201e-06	2.2635e-06	1248.4	235.87	7.5952e-06	3.8516e-06	300.39	84.129	65.517	19.512	3.4641e-06	27.269	0.00021722	0.00021934	6.0158e-05	1118.9	2.4253e-06	2.425e-06	1225.9	234.63	2.4068e-06	2.4192e-06	296.82	83.6	65.665	19.811	2.4044e-06	27.409	-12.728	58.291	53.687	-6.423	74.781	205.980	-6.376	0.776	33.687	243.728	0.667	7.294	7.913	13.862	158.747	13.679	-8191	255	
580.441	1	1	0	0	0.22822	0.29803	0.1913	0.10896	0.041559	0.1499	0.22489	0.17283	0.12104	0.073934	0.21618	0.056258	0.071532	0.10332	0.24175	0.24902	-2.1833	-3.2604	-2.9875	-2.9396	-3.4188	-2.75	-3.3604	-3.3104	-2.8083	-3.2875	-3.1521	-2.8208	-3.2562	-3.0854	-2.9188	-3.4292	146.166	4.149	291.545	272.040	31.934	224.767	-7.075	332.494	-3.520	308.756	-14.999	240.436	74.243	314.161	328.597	-3.625	0.00054143	0.00034409	3.1389e-05	1134.2	2.7593e-06	2.7178e-06	1257.8	236.97	3.5193e-06	1.7461e-06	301.68	84.237	65.498	19.438	3.3907e-06	27.066	0.00022324	0.00021457	6.1142e-05	1118.5	2.4042e-06	2.3805e-06	1228.3	234.51	2.3919e-06	2.3793e-06	296.76	83.626	65.578	19.823	2.4064e-06	27.314	328.871	56.519	72.440	-6.626	74.936	176.060	-6.140	1.054	144.550	104.578	0.888	7.751	8.042	14.214	159.681	13.901	-8191	255	
580.538	1	1	0	0	0.14947	0.18885	0.0717	0.33066	0.16963	0.11709	0.056007	0.01224	0.1589	0.19866	0.30974	0.11301	0.167	0.34064	0.28172	0.11299	-2.3937	-3.2812	-3.2708	-2.7958	-3.2188	-3.0083	-3.1875	-3.4792	-2.9292	-3.1688	-3.3979	-2.8854	-3.2042	-3.1312	-2.9125	-3.2583	273.051	93.160	38.628	258.394	218.370	40.968	42.410	232.229	128.528	169.974	297.655	97.410	226.183	251.932	342.722	154.900	0.00053155	0.00038269	0.00017088	1141	3.8623e-06	8.2796e-06	1251.8	234.16	4.2254e-06	1.4539e-06	299.83	84.548	65.491	19.622	1.7316e-06	26.925	0.00022082	0.00021742	5.9958e-05	1120.2	2.3838e-06	2.3612e-06	1224.2	234.32	2.4001e-06	2.3778e-06	295.62	83.507	65.683	19.858	2.4183e-06	27.34	331.237	120.830	42.797	-6.408	149.408	165.405	-6.374	0.919	202.143	157.953	0.453	7.871	7.631	14.311	10.846	13.787	-8191	255	
580.658	1	1	0	0	0.14661	0.022984	0.084901	0.10895	0.2079	0.22912	0.26635	0.1809	0.24887	0.097929	0.084634	0.29802	0.20265	0.2599	0.31303	0.2623	-2.4542	-3.05	-3.2583	-3.0583	-3.3229	-2.9437	-3.2646	-3.4583	-2.9854	-3.0479	-3.3125	-2.9458	-3.2646	-3.0479	-2.7292	-3.4	25.302	162.984	265.492	188.231	28.199	252.807	244.059	3.289	130.621	160.336	175.927	50.763	-8.174	277.093	84.129	302.518	0.00071133	0.00025556	9.451e-05	1139.2	4.6688e-06	7.7082e-06	1248.9	235.59	1.2349e-06	5.5359e-06	300.02	83.531	65.158	19.498	2.9123e-06	27.062	0.00022473	0.00021942	6.2019e-05	1119.9	2.4001e-06	2.3584e-06	1227.3	234.48	2.3694e-06	2.389e-06	295.23	83.156	65.511	19.781	2.4037e-06	27.304	1.146	62.879	76.415	-6.511	64.121	134.779	-6.486	1.137	175.787	80.420	0.716	7.197	7.961	14.236	130.916	13.854	-8191	255	
580.754	1	1	0	0	0.03303	0.19931	0.20954	0.059771	0.20042	0.10873	0.11064	0.045055	0.18974	0.25515	0.063198	0.18152	0.38336	0.19248	0.23319	0.1156	-2.6188	-2.9313	-3.125	-3.1333	-3.4333	-3.3208	-3.0542	-3.2833	-3.0812	-3.1375	-3.5917	-3.0354	-3.2687	-3.2875	-2.8583	-3.3021	128.275	222.344	200.380	260.330	112.581	37.346	41.356	323.435	24.139	-3.994	94.418	38.633	323.801	92.895	334.000	27.587	0.00047914	0.00045694	4.9104e-05	1135.3	5.4152e-06	2.748e-06	1251.1	236.77	6.4063e-06	3.7356e-06	300.98	84.585	65.665	19.379	3.994e-06	26.788	0.00021834	0.0002198	5.9692e-05	1117.3	2.4197e-06	2.3748e-06	1225.2	234.9	2.3891e-06	2.4006e-06	295.57	83.362	65.562	19.854	2.3677e-06	27.292	-16.787	-8.320	246.657	-6.452	103.087	169.869	-6.765	0.928	108.232	179.867	0.687	7.669	8.219	14.679	182.865	13.522	-8191	255	
580.851	1	1	0	0	0.075902	0.09788	0.052455	0.1454	0.3538	0.039034	0.21202	0.13747	0.10709	0.20507	0.17989	0.25801	0.20441	0.20315	0.34512	0.19366	-2.5938	-2.7542	-3.3875	-3.0271	-2.9667	-3.3292	-2.9208	-3.3896	-3.1521	-2.9021	-3.3667	-2.9625	-3.2333	-3.2521	-2.8458	-3.1937	-0.099	119.195	322.101	285.565	294.296	127.091	329.328	311.302	5.048	86.098	236.202	0.856	-7.181	263.846	34.168	249.009	0.00018195	0.00019217	9.1088e-05	1137.8	3.9884e-06	2.8379e-06	1247.4	237.56	1.097e-05	1.4064e-06	300.84	83.841	65.445	19.461	4.8307e-06	27.368	0.00022288	0.00021803	6.1039e-05	1118.9	2.404e-06	2.3986e-06	1225.1	234.85	2.4106e-06	2.3978e-06	295.86	83.2	65.632	19.802	2.4217e-06	27.448	321.820	100.159	113.059	-6.574	73.946	143.328	-6.516	1.088	172.294	74.268	0.643	7.819	7.786	14.421	110.714	13.721	-8191	255	
580.947	1	1	0	0	0.25498	0.069216	0.083248	0.052505	0.14154	0.16053	0.42118	0.090102	0.30732	0.23917	0.1883	0.16388	0.14044	0.16548	0.13384	0.078589	-2.6229	-2.8417	-3.1979	-2.8229	-3.1688	-3.225	-2.9813	-3.2583	-3.1021	-2.8271	-3.3937	-2.9667	-3.1521	-3.3917	-2.9562	-2.9354	178.744	328.177	238.008	163.173	178.007	1.580	315.496	56.133	81.770	59.729	342.343	270.611	195.835	245.705	0.233	205.582	0.00078925	0.00031738	0.0002413	1140.2	3.8828e-06	7.5635e-07	1250.5	236.51	2.5866e-06	4.5226e-07	298.47	84.172	65.749	19.507	2.6909e-06	27.051	0.00022303	0.00022171	6.0892e-05	1117.9	2.4218e-06	2.4321e-06	1225.4	234.51	2.4453e-06	2.4335e-06	295.49	83.589	65.651	19.826	2.4264e-06	27.334	-10.652	296.372	84.213	-6.612	19.550	256.735	-6.584	0.984	89.120	149.170	0.902	7.625	7.676	14.473	192.152	13.643	-8191	255	
581.018	1	1	0	0	0.29586	0.30359	0.15646	0.33501	0.15317	0.042461	0.18854	0.229	0.30957	0.29255	0.039842	0.13446	0.11801	0.22712	0.041682	0.20085	-2.6417	-2.8167	-3.4521	-3.1604	-3.0333	-3.3688	-3.0875	-3.2875	-3.2417	-2.725	-3.3021	-3.1	-2.875	-3.2812	-2.9562	-3.0625	49.751	94.750	310.597	292.820	102.452	81.452	312.303	319.045	-0.836	130.794	103.219	319.073	52.222	152.225	-8.616	87.660	0.00035505	0.00078486	7.7653e-05	1137.2	8.085e-06	4.5682e-06	1248.9	235.82	2.8628e-06	6.133e-06	300.29	84.096	65.454	19.62	3.399e-06	27.006	0.00022315	0.00022107	6.1643e-05	1117.3	2.4386e-06	2.3945e-06	1225.8	234.47	2.4238e-06	2.4244e-06	295.39	83.472	65.603	19.868	2.4115e-06	27.321	-4.337	27.206	141.807	-6.481	92.926	167.160	-6.488	1.123	77.512	129.218	0.727	8.086	8.134	14.209	122.865	13.706	-8191	255	
581.139	1	1	0	0	0.17493	0.098248	0.1919	0.31805	0.24445	0.068464	0.26191	0.25547	0.11296	0.018424	0.15486	0.10439	0.17515	0.23461	0.12452	0.12141	-2.7729	-2.7875	-3.1688	-3.0875	-2.7812	-3.5208	-2.9146	-3.1292	-3.1688	-2.8542	-3.2875	-3.1771	-2.7938	-3.3292	-2.7479	-3.225	245.722	-2.033	179.631	260.978	184.162	164.967	0.023	307.629	19.524	95.260	335.380	307.940	280.516	210.224	196.227	68.405	0.00030035	0.00023234	0.00013996	1131.5	2.205e-06	3.1654e-06	1251.7	235.41	5.5397e-06	2.4506e-06	301.71	83.924	65.417	19.289	1.229e-06	26.958	0.00022065	0.00022048	6.1255e-05	1115	2.4009e-06	2.4008e-06	1224.2	234.51	2.414e-06	2.4031e-06	296.79	83.394	65.467	19.801	2.4218e-06	27.359	-14.558	20.543	53.054	-6.733	56.502	116.776	-6.184	1.104	181.208	97.266	0.733	7.911	7.529	14.006	179.617	13.920	-8191	255	
581.235	1	1	0	0	0.13298	0.17835	0.05374	0.11268	0.27181	0.21928	0.41028	0.26151	0.27616	0.19084	0.22118	0.19026	0.11481	0.19983	0.1136	0.16031	-2.825	-2.8542	-3.0958	-3.2417	-2.9292	-3.1937	-3.2646	-2.9562	-3.2188	-2.925	-3.3833	-3.2146	-2.8771	-3.3042	-2.9646	-3.0521	202.873	16.020	272.035	154.285	325.259	8.848	295.494	210.534	257.888	5.476	203.308	38.230	267.536	-4.468	284.840	35.436	0.00032879	0.00029482	0.00017961	1132.7	2.0066e-06	1.7522e-06	1251.7	236.29	7.094e-06	3.109e-06	299.47	84.104	65.472	19.469	2.7288e-06	26.884	0.00022304	0.00022097	6.1214e-05	1117.1	2.4382e-06	2.4358e-06	1224.6	234.47	2.4632e-06	2.4263e-06	296.14	83.497	65.614	19.846	2.4149e-06	27.277	316.197	-5.843	48.781	-6.513	153.057	55.029	-6.469	0.779	85.143	100.407	0.663	7.517	7.868	14.675	175.321	14.123	-8191	255	
581.331	1	1	0	0	0.16297	0.11648	0.12498	0.31674	0.10755	0.15839	0.24209	0.15191	0.15521	0.1122	0.30807	0.15385	0.27449	0.10743	0.083033	0.046541	-2.9375	-2.6917	-2.9833	-3.1896	-2.7125	-3.2938	-3.1958	-3.0187	-3.2208	-2.925	-3.2833	-3.3167	-2.8708	-3.1917	-3.0396	-2.9688	51.619	15.277	185.107	307.990	152.894	88.804	326.511	239.365	309.258	132.349	24.337	13.374	289.359	62.281	120.296	108.188	0.00048628	0.00053922	3.6865e-05	1137.8	2.796e-06	3.0152e-06	1248	235.42	4.7963e-06	4.4931e-06	301.19	83.963	65.624	19.448	2.0808e-06	27.002	0.000226	0.00022282	6.181e-05	1117.7	2.4367e-06	2.3909e-06	1222.6	234.09	2.4253e-06	2.4119e-06	295.62	83.328	65.55	19.792	2.4023e-06	27.337	340.797	-2.909	11.410	-6.486	319.116	83.215	-6.274	0.920	134.977	123.377	1.174	7.632	7.723	14.461	228.946	14.314	-8191	255	
581.450	1	1	0	0	0.24676	0.28849	0.071134	0.31371	0.24967	0.1489	0.041983	0.10455	0.064312	0.23515	0.099264	0.1436	0.18119	0.16752	0.22442	0.024843	-2.9146	-2.8625	-3.0375	-3.4208	-2.7062	-3.2	-3.0604	-2.7792	-3.4313	-2.9521	-3.075	-3.4833	-2.7938	-3.3708	-3.0646	-2.6479	262.127	229.894	209.665	284.690	113.735	193.281	258.892	249.333	192.288	23.365	110.363	233.357	326.852	338.048	152.981	151.755	0.00074177	0.00011969	4.9828e-05	1133.2	2.7896e-06	6.0506e-06	1249.9	235.57	7.9441e-06	6.4989e-06	302.17	84.23	65.588	19.477	1.5077e-06	26.824	0.00022163	0.00021861	6.0964e-05	1116.4	2.4541e-06	2.3967e-06	1223.1	234.61	2.4218e-06	2.4361e-06	296.33	83.345	65.605	19.818	2.4622e-06	27.303	338.424	2.916	288.246	-6.374	69.318	180.467	-6.333	0.860	158.923	148.248	1.225	7.785	7.952	14.280	110.015	13.829	-8191	255	
581.546	1	1	0	0	0.1696	0.19167	0.16916	0.11691	0.34679	0.13403	0.1425	0.16023	0.072546	0.09106	0.14137	0.043452	0.22797	0.10667	0.28672	0.075051	-2.9104	-2.9938	-2.9125	-3.3729	-2.6833	-3.0958	-3.1688	-3.0187	-3.1813	-3.0687	-2.9562	-3.3479	-2.8583	-3.2771	-3.125	-2.7875	306.509	224.451	327.735	-12.005	50.472	212.407	181.128	-14.082	308.734	3.956	229.057	308.530	341.399	255.907	174.510	119.726	0.00050638	0.00014043	0.00010856	1136.3	3.1794e-06	5.9817e-06	1252.3	236.56	3.197e-06	2.6393e-06	300.84	83.941	65.208	19.504	3.7494e-06	26.987	0.00022603	0.00022503	6.2275e-05	1116.4	2.4796e-06	2.4427e-06	1223.5	234.19	2.4516e-06	2.4622e-06	295.66	83.408	65.575	19.824	2.4627e-06	27.313	300.018	54.062	112.408	-6.415	37.502	258.398	-6.600	0.949	2.034	168.675	1.318	7.767	7.998	14.178	41.926	13.548	-8191	255	
581.620	1	1	0	0	0.13475	0.11105	0.22542	0.29495	0.05014	0.15272	0.22314	0.073649	0.089184	0.18134	0.13875	0.15731	0.10472	0.09771	0.15626	0.014259	-3.0083	-3.0458	-2.9188	-3.3937	-2.7562	-3.1021	-3.3708	-2.8667	-3.2	-2.9708	-2.9333	-3.3417	-2.9	-3.2792	-3.1917	-2.8937	192.288	333.049	265.071	256.425	7.311	265.011	199.965	116.973	99.258	289.137	260.118	323.255	231.981	62.971	249.745	147.898	0.00060268	0.00036127	3.7944e-05	1134.9	2.7835e-06	2.3296e-06	1247.1	234.85	2.6676e-06	3.5643e-06	298.63	84.015	65.179	19.484	3.1449e-06	27.064	0.00022501	0.00022203	6.2565e-05	1117.9	2.4847e-06	2.4443e-06	1224.1	234.08	2.4767e-06	2.4694e-06	294.7	83.572	65.516	19.819	2.488e-06	27.329	329.352	62.638	111.141	-6.296	56.759	167.298	-6.484	1.231	166.166	196.756	0.727	7.505	7.781	14.409	164.450	13.896	-8191	255	
581.739	1	1	0	0	0.067299	0.19664	0.14824	0.14604	0.041604	0.17684	0.10708	0.19015	0.12425	0.36571	0.17521	0.086485	0.1336	0.14834	0.12937	0.23347	-2.9062	-3.2167	-2.7271	-3.45	-2.9104	-3.0396	-3.3667	-2.8979	-3.1771	-2.9813	-3.1354	-3.3521	-3.1146	-3.0208	-3.1083	-2.9062	241.709	-8.458	2.868	308.621	228.844	150.814	300.318	247.871	312.479	8.777	32.119	0.760	270.773	223.347	178.484	50.953	0.00062057	5.6616e-05	2.1651e-05	1138.4	2.1153e-06	1.5722e-06	1246.6	235.56	2.8343e-06	5.1637e-06	300.08	83.858	65.489	19.354	2.4805e-06	26.846	0.00023036	0.00022501	6.322e-05	1118.1	2.4752e-06	2.4823e-06	1224.8	234.3	2.4834e-06	2.4464e-06	295.43	83.247	65.532	19.738	2.4676e-06	27.317	-14.803	296.952	289.719	-6.452	108.007	299.999	-6.363	0.917	155.463	236.823	0.772	7.262	7.798	13.893	42.111	13.996	-8191	255	
581.835	1	1	0	0	0.16532	0.14392	0.08948	0.17814	0.18415	0.15931	0.18116	0.038868	0.12653	0.046551	0.23543	0.12934	0.11154	0.12977	0.09464	0.070782	-2.6083	-3.2354	-2.8312	-3.4167	-2.9583	-2.9021	-3.3792	-3.1604	-3.1625	-3.1708	-2.8271	-3.2146	-3.2021	-3.0312	-3.1854	-2.9854	311.791	244.376	285.370	258.841	294.271	277.184	334.250	266.461	306.203	291.349	295.832	14.079	-13.196	238.709	271.282	326.291	0.00068831	0.00083935	0.00012357	1139.8	3.9688e-06	2.4296e-06	1244.1	235.82	8.2545e-06	7.1718e-06	297.9	84.579	65.161	19.282	3.1549e-06	26.909	0.00022604	0.00022355	6.2321e-05	1117.8	2.488e-06	2.4783e-06	1223.1	234.36	2.47e-06	2.4663e-06	294.64	83.419	65.531	19.721	2.4575e-06	27.356	319.906	31.099	3.531	-6.250	53.041	205.828	-6.445	1.285	189.153	195.073	0.480	7.620	7.734	14.314	138.965	13.890	-8191	255	
#DATA ENDS
