BOXY.EXE: ISS Imagent and Oximeter Data Acquisition Program Version 0.80
Ascii Record File

#ACQ INFORMATION
2  Detector Channels 
16  External MUX Channels 
1  Auxiliary Channels 
5000  Waveform (CCF) Frequency (Hz)
1  Waveforms Skipped 
30  Waveforms Averaged 
1  Cycles Averaged 
16  Acquisitions per Waveform 
10.0806  Updata Rate (Hz) 

#FILE INFORMATION
TRUE -- External MUX Channel results are PARSED.
FALSE -- AC DC and Phase are NOT grouped.
TRUE -- Companion Program Settings File CREATED.
FALSE -- AC data not excluded
FALSE -- DC data not excluded
FALSE -- Phase data not excluded
FALSE -- Auxillary Chn. data not excluded
Tab delimiters

#CALIBRATION STATE
TRUE -- Waveform Calibration Values APPLIED.


#AUX CALIBRATION VALUES
Val Type	aux-1	

Term	1.0000e+00	
Factor	0.0000e+00	


#WF CALIBRATION VALUES
A = Detector Channel
Val Type	A-AC1	A-AC2	A-AC3	A-AC4	A-AC5	A-AC6	A-AC7	A-AC8	A-AC9	A-AC10	A-AC11	A-AC12	A-AC13	A-AC14	A-AC15	A-AC16	A-DC1	A-DC2	A-DC3	A-DC4	A-DC5	A-DC6	A-DC7	A-DC8	A-DC9	A-DC10	A-DC11	A-DC12	A-DC13	A-DC14	A-DC15	A-DC16	A-Ph1	A-Ph2	A-Ph3	A-Ph4	A-Ph5	A-Ph6	A-Ph7	A-Ph8	A-Ph9	A-Ph10	A-Ph11	A-Ph12	A-Ph13	A-Ph14	A-Ph15	A-Ph16	

Term	0.00000e+00	0.00000e+00	0.00000e+00	0.00000e+00	0.00000e+00	0.00000e+00	0.00000e+00	0.00000e+00	0.00000e+00	0.00000e+00	0.00000e+00	0.00000e+00	0.00000e+00	0.00000e+00	0.00000e+00	0.00000e+00	0.00000e+00	0.00000e+00	0.00000e+00	0.00000e+00	0.00000e+00	0.00000e+00	0.00000e+00	0.00000e+00	0.00000e+00	0.00000e+00	0.00000e+00	0.00000e+00	0.00000e+00	0.00000e+00	0.00000e+00	0.00000e+00	0.00000e+00	0.00000e+00	0.00000e+00	0.00000e+00	0.00000e+00	0.00000e+00	0.00000e+00	0.00000e+00	0.00000e+00	0.00000e+00	0.00000e+00	0.00000e+00	0.00000e+00	0.00000e+00	0.00000e+00	0.00000e+00	
Factor	1.00000e+00	1.00000e+00	1.00000e+00	1.00000e+00	1.00000e+00	1.00000e+00	1.00000e+00	1.00000e+00	1.00000e+00	1.00000e+00	1.00000e+00	1.00000e+00	1.00000e+00	1.00000e+00	1.00000e+00	1.00000e+00	1.00000e+00	1.00000e+00	1.00000e+00	1.00000e+00	1.00000e+00	1.00000e+00	1.00000e+00	1.00000e+00	1.00000e+00	1.00000e+00	1.00000e+00	1.00000e+00	1.00000e+00	1.00000e+00	1.00000e+00	1.00000e+00	X	X	X	X	X	X	X	X	X	X	X	X	X	X	X	X	

B = Detector Channel
Val Type	B-AC1	B-AC2	B-AC3	B-AC4	B-AC5	B-AC6	B-AC7	B-AC8	B-AC9	B-AC10	B-AC11	B-AC12	B-AC13	B-AC14	B-AC15	B-AC16	B-DC1	B-DC2	B-DC3	B-DC4	B-DC5	B-DC6	B-DC7	B-DC8	B-DC9	B-DC10	B-DC11	B-DC12	B-DC13	B-DC14	B-DC15	B-DC16	B-Ph1	B-Ph2	B-Ph3	B-Ph4	B-Ph5	B-Ph6	B-Ph7	B-Ph8	B-Ph9	B-Ph10	B-Ph11	B-Ph12	B-Ph13	B-Ph14	B-Ph15	B-Ph16	

Term	0.00000e+00	0.00000e+00	0.00000e+00	0.00000e+00	0.00000e+00	0.00000e+00	0.00000e+00	0.00000e+00	0.00000e+00	0.00000e+00	0.00000e+00	0.00000e+00	0.00000e+00	0.00000e+00	0.00000e+00	0.00000e+00	0.00000e+00	0.00000e+00	0.00000e+00	0.00000e+00	0.00000e+00	0.00000e+00	0.00000e+00	0.00000e+00	0.00000e+00	0.00000e+00	0.00000e+00	0.00000e+00	0.00000e+00	0.00000e+00	0.00000e+00	0.00000e+00	7.91608e+01	-1.57426e+02	-1.25790e+02	-1.81071e+02	-1.33254e+02	-4.33174e+01	-1.58384e+02	-1.62015e+02	-9.85754e+01	-5.35677e+01	-1.74335e+02	-1.74194e+02	-1.80052e+02	-1.76373e+02	-8.84111e+01	-1.49596e+02	
Factor	7.28416e-05	1.18705e-04	3.43277e-05	1.55421e-01	1.40958e-06	1.37877e-06	1.77198e-01	4.90421e-02	1.73132e-06	1.35496e-06	9.21222e-02	3.70337e-02	2.12366e-02	8.91378e-03	1.18770e-06	1.32070e-02	1.01932e-06	1.04090e-06	2.89617e-07	7.87538e-02	1.13864e-08	1.14252e-08	8.37802e-02	2.48126e-02	1.13964e-08	1.14369e-08	4.41850e-02	1.75058e-02	1.07770e-02	4.46422e-03	1.14014e-08	6.34155e-03	X	X	X	X	X	X	X	X	X	X	X	X	X	X	X	X	



#DISTANCE SETTINGS
A = Detector Channel
A-1	A-2	A-3	A-4	A-5	A-6	A-7	A-8	A-9	A-10	A-11	A-12	A-13	A-14	A-15	A-16	

2.5000e+00	3.0000e+00	2.5000e+00	3.0000e+00	2.0000e+00	3.0000e+00	1.5000e+00	3.0000e+00	3.0000e+00	3.0000e+00	3.0000e+00	3.0000e+00	3.0000e+00	3.0000e+00	1.5000e+00	3.0000e+00	

B = Detector Channel
B-1	B-2	B-3	B-4	B-5	B-6	B-7	B-8	B-9	B-10	B-11	B-12	B-13	B-14	B-15	B-16	

1.0000e+01	1.0000e+01	1.0000e+01	1.4400e+00	1.0000e+01	1.0000e+01	1.5100e+00	1.9400e+00	1.0000e+01	1.0000e+01	1.9900e+00	2.4900e+00	2.4100e+00	2.9000e+00	1.0000e+01	2.9800e+00	




#DATA BEGINS
time	group	step	mark	flag	A-AC1	A-AC2	A-AC3	A-AC4	A-AC5	A-AC6	A-AC7	A-AC8	A-AC9	A-AC10	A-AC11	A-AC12	A-AC13	A-AC14	A-AC15	A-AC16	A-DC1	A-DC2	A-DC3	A-DC4	A-DC5	A-DC6	A-DC7	A-DC8	A-DC9	A-DC10	A-DC11	A-DC12	A-DC13	A-DC14	A-DC15	A-DC16	A-Ph1	A-Ph2	A-Ph3	A-Ph4	A-Ph5	A-Ph6	A-Ph7	A-Ph8	A-Ph9	A-Ph10	A-Ph11	A-Ph12	A-Ph13	A-Ph14	A-Ph15	A-Ph16	B-AC1	B-AC2	B-AC3	B-AC4	B-AC5	B-AC6	B-AC7	B-AC8	B-AC9	B-AC10	B-AC11	B-AC12	B-AC13	B-AC14	B-AC15	B-AC16	B-DC1	B-DC2	B-DC3	B-DC4	B-DC5	B-DC6	B-DC7	B-DC8	B-DC9	B-DC10	B-DC11	B-DC12	B-DC13	B-DC14	B-DC15	B-DC16	B-Ph1	B-Ph2	B-Ph3	B-Ph4	B-Ph5	B-Ph6	B-Ph7	B-Ph8	B-Ph9	B-Ph10	B-Ph11	B-Ph12	B-Ph13	B-Ph14	B-Ph15	B-Ph16	aux-1	digaux	

880.582	1	1	0	256	0.13417	0.039127	0.16651	0.13028	0.13015	0.2625	0.33586	0.16112	0.092814	0.26991	0.17439	0.35822	0.11156	0.18677	0.11257	0.31708	-2.1479	-2.5146	-2.725	-2.5146	-2.8771	-2.7062	-2.8208	-3.1042	-2.5708	-2.7125	-3.1229	-2.6625	-2.9229	-2.85	-2.4708	-2.8604	-99.020	89.060	-15.700	126.968	230.384	-38.484	206.365	118.969	134.268	-121.390	-89.879	204.792	226.875	189.082	204.789	148.461	0.0020322	0.0012147	0.00054861	795.99	1.6994e-05	1.1736e-05	1102.5	217.1	7.4549e-06	2.5898e-05	416.95	176.98	85.982	43.474	2.4295e-05	94.441	0.0029818	0.0030449	0.00084874	950.1	3.4131e-05	3.454e-05	1256.2	273.81	3.615e-05	3.6453e-05	511.55	211.78	111.76	53.527	3.6732e-05	104.93	63.324	97.356	89.590	-109.323	90.370	224.450	-109.470	-103.432	11.155	-48.160	-103.658	-99.292	-99.478	-94.753	175.958	-95.444	-8191	255	
880.678	1	1	0	0	0.12314	0.10535	0.27089	0.077829	0.17507	0.18882	0.083273	0.094544	0.33267	0.22213	0.10948	0.068841	0.11599	0.22422	0.13728	0.22305	-2.2271	-2.5417	-2.975	-2.4542	-2.8	-2.6604	-2.5938	-2.9417	-2.6688	-2.4979	-3.0875	-2.4375	-2.7958	-2.8688	-2.3229	-3.1104	192.906	-56.779	-61.152	92.256	201.453	166.371	70.038	231.826	69.495	220.379	-118.135	120.039	125.007	212.013	81.454	93.678	0.0027811	0.0018521	0.00067514	790.82	1.3883e-05	2.15e-05	1099.4	221.45	7.1467e-06	7.043e-06	419.35	178.13	87.068	44.37	9.4304e-06	94.206	0.0033155	0.0033355	0.00092836	967.08	3.6428e-05	3.6387e-05	1259.9	280.15	3.6053e-05	3.5857e-05	508.77	211.16	111.2	53.297	3.4784e-05	103.27	40.480	-63.635	212.362	-108.799	60.995	71.042	-109.012	-103.391	68.902	-1.676	-103.632	-99.340	-98.499	-94.019	-119.018	-95.698	-8191	255	
880.776	1	1	0	0	0.25533	0.10327	0.20641	0.25994	0.14795	0.24295	0.28989	0.29192	0.070983	0.20423	0.24379	0.18681	0.14727	0.10377	0.061416	0.13403	-2.2646	-2.3729	-2.9208	-2.7042	-2.6021	-2.9167	-2.5583	-2.8146	-2.7708	-2.5146	-2.95	-2.6771	-2.8354	-2.8063	-2.3542	-2.7896	-27.922	205.636	159.845	202.810	129.169	0.253	169.204	-46.215	5.547	-97.909	169.653	218.628	220.827	214.221	106.011	229.248	0.0027221	0.0018224	0.00054373	798.92	8.7489e-06	1.3481e-05	1115.8	214.8	2.6238e-05	1.061e-05	396.5	160.88	75.934	37.535	1.4351e-05	81.914	0.0030923	0.0030904	0.00085177	949.86	3.2563e-05	3.2198e-05	1245.4	262.69	3.1692e-05	3.1789e-05	475.87	189.24	97.954	45.875	3.0915e-05	90.46	33.785	149.372	20.927	-109.347	128.650	26.727	-109.350	-103.671	-73.409	48.030	-103.581	-99.033	-98.572	-94.105	145.980	-95.579	-8191	255	
880.895	1	1	0	0	0.19817	0.27345	0.37277	0.16999	0.14178	0.14633	0.29475	0.070639	0.10328	0.080124	0.25893	0.16291	0.21723	0.116	0.11118	0.14013	-2.4667	-2.4667	-2.925	-2.9042	-2.7583	-2.7958	-2.5771	-2.9208	-2.7562	-2.6833	-3.1271	-2.5958	-2.4833	-3.0292	-2.3854	-2.9333	63.775	20.216	-24.045	-98.608	-51.338	0.265	131.296	-116.749	-103.024	54.809	209.570	206.400	227.290	-62.989	-66.149	-93.239	0.0019958	0.0016971	0.0003576	797.24	2.9634e-06	1.7318e-05	1119.7	210.82	7.0831e-06	7.3285e-06	388.93	154.22	74.226	36.641	6.9116e-06	82.188	0.0027899	0.0028376	0.00079254	936.29	3.1372e-05	3.1622e-05	1245.3	258.7	3.1622e-05	3.1755e-05	469.81	184.94	96.455	45.402	3.1716e-05	90.926	32.100	-35.318	206.243	-109.685	85.860	31.405	-109.112	-103.614	-111.797	129.929	-103.925	-99.415	-98.549	-93.575	13.309	-95.675	-8191	255	
880.967	1	1	0	0	0.069652	0.20528	0.22738	0.1157	0.40376	0.14849	0.20906	0.1003	0.1755	0.14266	0.26042	0.10303	0.075932	0.16244	0.22761	0.052061	-2.3646	-2.325	-2.7271	-2.5958	-2.6604	-2.9667	-2.5417	-2.725	-2.5708	-2.35	-2.9938	-2.8812	-2.6146	-3.0979	-2.5229	-2.6979	2.259	4.558	14.961	227.855	-64.011	225.506	182.947	110.265	71.808	-77.512	14.396	150.564	85.373	-37.607	-109.694	78.649	0.002155	0.0017784	9.6658e-05	797.64	2.7264e-05	1.9859e-05	1116.4	209.56	3.4248e-05	2.828e-05	389.05	153.5	73.873	36.964	2.1274e-06	81.4	0.0028529	0.0028962	0.00080889	940.36	3.1885e-05	3.1952e-05	1243	259.67	3.215e-05	3.2142e-05	469.78	184.99	96.217	45.175	3.1174e-05	89.94	58.229	-80.111	214.903	-108.901	-52.240	194.383	-109.273	-103.069	-19.874	128.169	-103.765	-99.096	-98.016	-93.706	-26.777	-95.374	-8191	255	
881.063	1	1	0	0	0.1935	0.1305	0.21059	0.01825	0.15637	0.15199	0.058287	0.32235	0.10535	0.14313	0.23314	0.11921	0.14089	0.15474	0.31603	0.06352	-2.2	-2.4271	-2.9396	-2.8271	-2.6	-2.8312	-2.6521	-2.7562	-2.95	-2.3708	-2.8479	-2.8583	-2.5375	-3.1146	-2.7271	-2.8542	-75.546	166.920	13.811	156.194	-97.280	57.723	41.858	229.463	-78.855	211.960	-110.031	171.627	-109.427	233.452	110.845	123.398	0.0015639	0.00035973	0.00025584	794.11	1.8033e-05	8.7096e-06	1108.2	207.89	1.8171e-05	9.7063e-06	384.45	150.12	72.054	36.428	8.5727e-06	80.247	0.0027881	0.0028187	0.00078376	930.32	3.0729e-05	3.0642e-05	1232.8	255.12	3.0372e-05	3.0607e-05	458.35	179.17	93.738	44.276	3.0156e-05	88.141	31.091	207.665	-119.857	-108.839	-37.777	3.380	-108.960	-103.354	-82.125	8.946	-103.563	-99.031	-98.107	-93.262	97.936	-95.245	-8191	255	
881.184	1	1	0	0	0.14068	0.31651	0.24116	0.21667	0.16872	0.08378	0.18534	0.14888	0.11308	0.13926	0.14823	0.19272	0.1841	0.28853	0.14372	0.22769	-2.3521	-2.3104	-2.8104	-2.8167	-2.5438	-2.9208	-2.6729	-2.6708	-2.8729	-2.4604	-2.7208	-2.7583	-2.4354	-2.9333	-2.6229	-2.4875	-46.169	197.586	213.894	197.956	101.097	116.070	209.913	235.140	208.709	-4.268	205.425	211.435	231.659	151.686	212.620	158.719	0.0021528	0.0014422	0.00040775	795.07	1.2206e-05	2.6374e-05	1116.9	209.51	1.3762e-05	7.3524e-06	383.23	152	73.513	36.655	5.7051e-06	80.402	0.0026848	0.0027533	0.000766	924.86	2.9984e-05	3.0091e-05	1226.6	254.7	2.9961e-05	3.0215e-05	458.18	180.14	94.694	44.564	3.0014e-05	88.145	71.885	-94.952	-73.266	-108.726	-77.991	65.695	-109.359	-103.422	192.689	7.978	-103.393	-99.075	-98.109	-93.609	-37.480	-95.042	-8191	255	
881.280	1	1	0	0	0.21062	0.24743	0.25289	0.35619	0.23429	0.20744	0.30853	0.084703	0.12406	0.08464	0.15429	0.42133	0.16927	0.15292	0.14223	0.12334	-2.3438	-2.3229	-2.675	-2.8312	-2.3396	-2.75	-2.6521	-2.5979	-2.9896	-2.5917	-2.7188	-2.9333	-2.5208	-2.9437	-2.6458	-2.6	-36.122	141.564	-103.022	136.116	31.898	217.115	-60.312	10.175	211.559	78.730	-116.641	221.270	191.218	-89.878	97.550	103.336	0.0009087	0.0020388	0.00030683	802.55	6.5673e-06	1.2608e-05	1112.2	210.67	1.6209e-05	2.9655e-05	385.11	151.72	73.178	35.781	7.9804e-06	78.705	0.00271	0.002755	0.00076744	930.22	2.9908e-05	2.9894e-05	1222.5	253.73	2.9295e-05	2.9495e-05	455.85	178.08	93.489	43.498	2.8806e-05	86.275	20.715	-95.118	114.057	-109.311	210.117	165.320	-109.158	-103.390	-41.086	86.528	-103.515	-98.652	-97.715	-93.500	195.950	-95.338	-8191	255	
881.376	1	1	0	0	0.091978	0.11546	0.18849	0.29174	0.16051	0.18988	0.21818	0.31352	0.085394	0.081269	0.29806	0.22167	0.29379	0.10821	0.070989	0.13086	-2.5938	-2.5771	-2.6458	-2.9021	-2.3708	-2.7958	-2.8812	-2.5563	-3.0271	-2.5062	-2.6479	-3.0021	-2.5896	-2.8	-2.7062	-2.7917	34.507	-28.461	136.874	196.568	135.469	118.661	20.069	115.503	197.851	-42.251	234.324	235.800	-110.229	177.955	45.442	-36.635	0.0014153	0.0012498	0.00029541	803.23	2.4105e-05	4.4825e-06	1111.2	211.14	5.9257e-06	1.5375e-05	389.65	153.52	74.772	37.103	6.5758e-06	80.059	0.0025754	0.0026156	0.00072807	922.97	2.86e-05	2.8702e-05	1217.5	252.88	2.8641e-05	2.8804e-05	455.69	179.49	94.273	44.246	2.851e-05	87.421	109.325	200.705	87.782	-109.418	-11.024	184.296	-109.651	-103.276	225.872	12.612	-103.741	-98.983	-98.584	-93.231	59.888	-95.273	-8191	255	
881.497	1	1	0	0	0.12513	0.073463	0.30701	0.31086	0.13342	0.20025	0.13282	0.17452	0.06546	0.08899	0.23948	0.058381	0.21511	0.14459	0.081281	0.07438	-2.4229	-2.5646	-2.6042	-2.8083	-2.4979	-2.7396	-2.7771	-2.4958	-2.9958	-2.3833	-2.7083	-2.9688	-2.5417	-2.7229	-2.6771	-2.7354	-52.721	209.250	0.070	238.563	-91.426	204.694	164.843	175.583	-6.046	96.435	214.997	183.204	166.942	55.463	-21.599	-49.734	0.0024277	0.00027223	0.00045477	805.94	1.2463e-05	1.7467e-05	1122.8	212.01	6.974e-06	1.7556e-05	385.46	152.58	73.756	36.713	5.6146e-06	80.335	0.002554	0.0025661	0.0007146	920.04	2.7819e-05	2.7811e-05	1212.8	250.79	2.7282e-05	2.7295e-05	448.3	175.77	92.614	43.495	2.7326e-05	86.756	44.169	69.366	31.660	-109.185	-33.765	201.257	-109.457	-103.305	195.586	-35.919	-103.698	-99.278	-97.898	-93.437	-74.819	-95.372	-8191	255	
881.568	1	1	0	0	0.2392	0.244	0.069012	0.054296	0.13619	0.12515	0.1749	0.24151	0.24268	0.15982	0.072474	0.089416	0.11039	0.14915	0.058481	0.4492	-2.5271	-2.6271	-2.4833	-2.8667	-2.6208	-2.7792	-2.9333	-2.6417	-2.9854	-2.7542	-2.4771	-3.0083	-2.4562	-2.7333	-2.9208	-2.5333	-51.009	-28.249	-13.248	230.646	-73.854	-101.307	203.859	225.914	210.836	-98.867	158.320	-104.289	67.895	110.244	174.245	190.640	0.0016851	0.002315	0.00033191	805.89	4.0768e-06	1.4595e-05	1112.9	209.95	8.1567e-06	6.0941e-06	378.73	148.81	72.759	36.2	7.1316e-06	78.624	0.0024841	0.0025307	0.0007032	914.65	2.7652e-05	2.7539e-05	1206.5	249.08	2.7406e-05	2.7378e-05	443	173.1	90.739	42.849	2.6938e-05	85.193	59.714	18.403	-42.985	-109.334	-89.178	59.323	-108.953	-103.530	-102.415	36.674	-103.600	-98.471	-98.394	-93.530	-0.993	-95.172	-8191	255	
881.663	1	1	0	0	0.23531	0.20428	0.099723	0.13195	0.19567	0.23289	0.14935	0.28	0.14535	0.27918	0.08454	0.16341	0.43804	0.18746	0.0717	0.16769	-2.3438	-2.9	-2.4042	-3.0229	-2.6458	-2.7042	-3.1271	-2.5375	-2.6292	-2.8312	-2.5875	-2.9062	-2.5604	-2.625	-2.8604	-2.6917	101.075	63.719	20.631	-111.050	149.102	225.056	195.819	174.490	29.034	178.443	27.191	-110.660	179.016	202.734	30.362	208.206	0.0013611	0.00084151	0.00039382	795.93	1.429e-05	5.7986e-06	1102.2	209.74	2.0852e-05	1.427e-05	384.38	151.67	74.024	36.764	1.1509e-05	79.892	0.0024404	0.002484	0.00069228	905.68	2.7233e-05	2.7498e-05	1196.7	249.57	2.7796e-05	2.8021e-05	448.59	176.71	93.235	43.995	2.8368e-05	87.103	-5.431	96.361	107.351	-109.046	-83.045	115.191	-109.541	-103.334	-70.916	152.194	-103.510	-98.809	-97.909	-93.317	-42.913	-94.928	-8191	255	
881.759	1	1	0	0	0.12153	0.13587	0.18734	0.20804	0.13041	0.19723	0.19279	0.052191	0.11695	0.095351	0.20669	0.19913	0.33758	0.31264	0.21942	0.12583	-2.4354	-2.8333	-2.3729	-3.0125	-2.6271	-2.6521	-2.9917	-2.4771	-2.5875	-2.7854	-2.6063	-2.9229	-2.5687	-2.6646	-2.9042	-2.6542	1.986	-73.316	-67.180	78.233	104.895	-70.361	132.261	-44.020	-107.173	118.216	160.523	232.584	176.400	-112.285	201.469	177.716	0.0012526	0.00093864	0.00041998	802.32	1.1811e-05	2.0001e-05	1097.2	214.09	3.1839e-05	1.3769e-05	395.13	158.56	77.707	38.93	1.044e-05	83.556	0.0025902	0.0026337	0.00074118	923.11	2.9493e-05	3.0028e-05	1213.4	258.77	3.0624e-05	3.1032e-05	472.06	187.52	99.392	47.222	3.1378e-05	92.349	86.533	-88.029	94.647	-108.937	-21.379	-70.392	-108.914	-102.886	-76.871	29.244	-103.437	-98.318	-98.007	-94.645	-50.099	-95.815	-8191	255	
881.879	1	1	0	0	0.23124	0.07303	0.1895	0.14284	0.23972	0.094611	0.22295	0.18582	0.36418	0.26965	0.15356	0.062613	0.19522	0.27273	0.20501	0.23249	-2.3312	-2.7625	-2.4333	-2.9833	-2.8208	-2.4229	-3.1104	-2.35	-2.7146	-2.775	-2.5979	-3.0583	-2.6458	-2.3896	-2.8812	-2.7938	102.270	79.717	-68.088	100.567	191.809	31.620	226.825	153.311	-51.784	47.139	176.436	-104.054	-4.267	218.850	72.069	201.052	0.0019342	0.0012275	0.00047195	802.11	2.103e-05	9.1538e-06	1094.1	214.84	1.3028e-05	1.0793e-06	398.81	162.04	79.004	39.818	8.421e-06	84.972	0.0028364	0.0028806	0.00080148	941.25	3.1482e-05	3.1742e-05	1223.6	262.81	3.1297e-05	3.1494e-05	473.98	190.7	100.07	47.638	3.0841e-05	93.331	47.368	27.037	-90.639	-109.570	-104.650	-11.757	-108.902	-103.006	-88.945	-32.978	-103.287	-98.840	-97.847	-93.141	13.203	-94.893	-8191	255	
881.976	1	1	0	0	0.19622	0.081893	0.13322	0.049146	0.12488	0.13337	0.29222	0.27352	0.080088	0.24156	0.13171	0.10552	0.061074	0.272	0.26355	0.22544	-2.2396	-2.8771	-2.2604	-3.1021	-2.6979	-2.6312	-2.9062	-2.6208	-2.7021	-3.0396	-2.55	-2.9458	-2.8688	-2.5958	-2.8042	-2.8479	-43.671	72.867	210.302	-56.713	-49.823	-113.087	124.382	150.649	177.124	17.909	-45.157	107.288	-33.344	231.375	187.618	142.740	0.0023215	0.0013063	0.00010438	800.42	1.1285e-05	2.0715e-05	1098.2	212.52	1.0054e-05	1.0695e-05	391.63	158.91	76.832	37.725	9.6267e-06	80.872	0.0027217	0.0027726	0.00076901	930.14	2.9944e-05	2.9892e-05	1210.5	257.3	2.9777e-05	2.9784e-05	462.53	184.27	96.524	45.205	2.9164e-05	88.564	63.384	113.830	-77.610	-108.894	169.123	-73.219	-108.865	-102.622	-8.759	182.103	-102.969	-98.200	-97.586	-92.847	11.679	-94.895	-8191	255	
882.072	1	1	0	0	0.15655	0.10103	0.23191	0.22248	0.24875	0.065969	0.16954	0.11848	0.17788	0.11499	0.092686	0.21308	0.097237	0.10097	0.18712	0.25068	-1.825	-2.9583	-2.3042	-2.8063	-2.7229	-2.4542	-3.0667	-2.7438	-2.4938	-2.8896	-2.7208	-2.8438	-2.7729	-2.5646	-2.9625	-2.6417	28.305	-42.553	-42.465	-100.774	35.321	196.079	161.837	193.279	-35.820	102.292	223.065	190.687	-89.478	222.372	31.028	197.883	0.0033856	0.0013924	0.00032388	809.22	1.2653e-05	2.9036e-05	1102.7	210.22	2.1289e-05	1.2982e-05	383.54	151.02	74.79	36.151	1.0382e-05	78.532	0.0026146	0.0026621	0.00074275	929.78	2.9165e-05	2.949e-05	1217.2	254.75	2.9702e-05	2.9959e-05	457.06	179.4	95.633	44.116	3.0908e-05	87.328	43.381	-77.100	-100.298	-108.535	111.172	-101.752	-108.861	-102.900	233.340	76.211	-103.091	-98.083	-98.432	-93.042	179.196	-94.992	-8191	255	
882.168	1	1	0	0	0.15661	0.24682	0.18451	0.14783	0.047659	0.16828	0.075367	0.16263	0.075529	0.028148	0.21175	0.096242	0.28872	0.2228	0.097186	0.16354	-2.175	-2.8271	-2.6042	-2.7979	-2.9833	-2.6375	-2.9792	-2.8312	-2.4792	-2.7646	-2.6896	-2.9292	-2.8396	-2.3354	-2.6771	-2.7333	-65.687	-5.086	92.915	174.989	230.689	-16.837	157.689	-112.560	152.408	-108.102	156.284	-69.884	95.666	149.281	4.050	142.961	0.00098796	0.0025358	9.5855e-05	813.2	9.0173e-06	1.9631e-05	1108.1	213.67	2.0198e-05	2.8527e-05	389.66	152.3	75.849	36.056	6.9664e-06	78.216	0.0028396	0.0028996	0.00081589	956.49	3.2296e-05	3.2802e-05	1242.5	264.4	3.2927e-05	3.3444e-05	477.05	187.22	100.36	45.818	3.4703e-05	89.128	81.884	-54.933	-109.026	-109.104	10.906	135.506	-109.013	-102.874	34.799	46.585	-103.741	-98.272	-97.786	-93.273	2.197	-94.911	-8191	255	
882.264	1	1	0	0	0.14157	0.15997	0.085119	0.21552	0.10333	0.083285	0.27346	0.13703	0.34753	0.16033	0.085873	0.11645	0.10384	0.20599	0.035844	0.060694	-2.125	-2.9313	-2.5521	-2.8167	-2.9729	-2.2625	-2.8667	-2.7938	-2.4896	-2.8854	-2.6104	-2.6375	-3.1125	-2.6	-2.6917	-2.8375	-65.344	150.881	36.195	163.108	102.278	-24.722	134.672	-87.990	57.848	35.619	-118.134	-23.230	220.387	110.275	-21.135	106.001	0.001397	0.0013482	0.00015393	818.56	1.532e-05	1.767e-05	1110.2	214.23	1.9431e-05	2.3732e-06	389.09	151.64	73.776	33.993	8.4578e-06	74.579	0.0031835	0.0032529	0.00091479	990.74	3.6384e-05	3.694e-05	1275.5	273.34	3.6873e-05	3.7228e-05	490.41	190.01	101.08	44.754	3.5946e-05	86.39	54.675	205.556	221.287	-108.815	-87.047	74.929	-108.936	-103.154	-70.480	42.235	-103.538	-99.008	-97.612	-93.158	-86.087	-94.300	-8191	255	
882.360	1	1	0	0	0.019082	0.19467	0.12349	0.31765	0.33473	0.084675	0.089877	0.085266	0.065217	0.071182	0.19868	0.27014	0.077555	0.14241	0.079827	0.20048	-2.0917	-2.9396	-2.65	-2.5896	-2.8875	-2.5708	-2.925	-2.7667	-2.4854	-2.9625	-2.6813	-2.7292	-3	-2.6708	-2.625	-2.8792	106.209	72.492	61.137	215.127	-115.181	-17.682	204.983	216.685	236.428	122.623	-15.255	121.430	149.824	150.629	1.197	72.741	0.0013708	0.0014974	0.00067432	829.91	2.4888e-05	2.3425e-05	1126.9	213.85	2.6068e-05	1.8076e-05	384.27	147.52	72.755	33.529	7.9741e-06	73.881	0.0031936	0.0032495	0.0009044	993.44	3.5487e-05	3.5457e-05	1279.9	269.77	3.5141e-05	3.5485e-05	478.71	183.71	98.311	43.51	3.3909e-05	84.959	85.249	-98.559	212.828	-109.002	-79.600	163.381	-109.289	-103.589	176.420	22.472	-103.607	-98.742	-97.856	-92.787	49.873	-94.820	-8191	255	
882.456	1	1	0	0	0.089327	0.23836	0.1172	0.12166	0.089123	0.24172	0.16085	0.031899	0.17031	0.14727	0.2253	0.11212	0.25988	0.20235	0.18374	0.037638	-2.0479	-2.8208	-2.6729	-2.575	-2.8187	-2.75	-2.8521	-2.8396	-2.4417	-2.7396	-2.6646	-2.4	-2.9604	-2.5458	-2.5687	-3.225	55.496	38.956	-80.749	-74.422	-10.402	84.213	204.150	232.499	83.946	-74.830	-108.581	181.930	197.393	114.589	-42.613	-56.378	0.0013478	0.0014479	0.00030217	834.82	4.3032e-06	1.1403e-05	1132.2	214.51	2.9931e-05	2.7982e-05	383.2	146.42	72.116	33.198	8.2773e-06	73.41	0.0030094	0.0030399	0.00084277	982.44	3.3003e-05	3.3268e-05	1268.7	264.8	3.298e-05	3.3113e-05	468.94	179.41	95.985	42.545	3.2558e-05	83.568	71.599	-21.398	-52.002	-109.177	45.638	-92.503	-109.223	-103.644	74.763	48.358	-103.437	-98.858	-98.174	-93.439	121.984	-94.831	-8191	255	
882.577	1	1	0	0	0.27822	0.12304	0.2633	0.33589	0.14215	0.0084569	0.35087	0.10885	0.083801	0.14693	0.18957	0.054429	0.14396	0.064921	0.052832	0.11037	-2.0042	-2.8063	-2.6979	-2.3583	-2.7792	-2.5708	-2.6542	-2.9021	-2.2917	-2.9292	-2.6813	-2.3792	-2.9354	-2.3854	-2.6437	-3.0396	88.923	-58.515	129.353	192.002	218.016	-85.500	175.144	157.498	46.824	68.009	199.082	61.659	139.652	158.800	119.327	174.955	0.0020133	0.0012103	0.00066393	839.96	1.7398e-05	3.5618e-06	1135.3	215.92	3.6684e-06	8.4399e-06	387.96	148.03	73.809	34.2	9.8241e-06	74.796	0.0029253	0.0029714	0.00082547	982.17	3.2069e-05	3.2278e-05	1261.4	263.7	3.1714e-05	3.1661e-05	466.04	178.78	95.994	42.786	3.0598e-05	84.098	37.991	188.107	176.604	-109.243	-81.648	137.448	-109.286	-103.740	-4.925	68.512	-104.165	-99.344	-98.735	-93.883	-36.565	-95.379	-8191	255	
882.673	1	1	0	0	0.17797	0.13756	0.016003	0.22187	0.073551	0.044532	0.37084	0.11658	0.20572	0.086799	0.034765	0.23558	0.024885	0.11179	0.018074	0.15242	-2.0125	-2.7458	-2.5354	-2.4062	-2.7667	-2.7062	-2.6625	-3.0729	-2.4708	-2.7208	-2.8771	-2.3729	-2.8729	-2.6521	-2.5104	-3.0646	134.887	-60.982	164.035	154.158	-98.767	186.466	148.463	190.327	-109.296	22.270	80.041	-89.221	223.041	71.958	-22.774	7.912	0.0014691	0.00017233	0.00020056	838.35	1.6894e-05	2.3453e-05	1127.2	214.43	5.0012e-05	1.4002e-05	390.65	152.02	75.706	35.423	1.576e-05	76.861	0.0027284	0.0027682	0.00076332	961.86	2.9502e-05	2.9523e-05	1234	258.01	2.8527e-05	2.8459e-05	454.94	176.49	93.987	42.326	2.7072e-05	83.556	36.159	194.684	45.409	-109.472	42.117	76.428	-109.832	-103.988	91.889	51.478	-104.247	-99.319	-98.924	-93.643	-62.821	-95.479	-8191	255	
882.768	1	1	0	0	0.12843	0.041267	0.17527	0.074246	0.19598	0.44853	0.083079	0.2593	0.019561	0.18554	0.05582	0.34951	0.085208	0.22039	0.12844	0.043244	-2.2417	-2.7125	-2.8063	-2.6188	-2.7979	-2.5042	-2.3479	-2.9667	-2.6271	-2.5687	-2.9271	-2.4958	-2.6833	-2.8333	-2.4271	-2.8937	-90.823	188.172	14.256	225.570	44.644	20.591	121.035	228.319	195.791	174.161	151.424	-120.159	-97.242	-99.142	162.628	148.866	0.0025727	0.0027162	0.00028187	837.78	1.3704e-05	8.0255e-06	1133.9	218.73	1.475e-05	1.1762e-05	393.88	154.76	77.836	36.571	4.5624e-06	78.587	0.0024163	0.0024401	0.000679	937.69	2.647e-05	2.6469e-05	1217.3	254.74	2.6159e-05	2.6334e-05	451.37	176.54	94.381	42.696	2.569e-05	84.379	78.190	-98.068	-75.719	-109.219	-53.512	-45.106	-109.785	-104.222	23.785	59.744	-104.409	-99.357	-98.650	-93.866	42.551	-95.434	-8191	255	
882.864	1	1	0	0	0.22671	0.1873	0.21691	0.021018	0.22247	0.073945	0.21747	0.17378	0.14284	0.16417	0.2417	0.25882	0.0091467	0.12382	0.18916	0.061102	-2.3	-2.5812	-2.8354	-2.7042	-2.6312	-2.7708	-2.4688	-2.8	-2.5021	-2.5542	-2.9417	-2.4437	-2.8042	-2.7792	-2.5417	-3.0208	77.161	36.496	-113.461	169.592	-0.603	102.754	130.168	-84.424	221.790	-69.210	190.302	163.752	178.633	-101.278	63.646	-42.425	0.0013924	0.0016626	0.00044367	843.19	6.8454e-06	1.3301e-05	1138.2	218.11	9.6582e-06	9.186e-06	395.48	154.53	77.318	36.625	2.4801e-06	79.051	0.0023038	0.0023287	0.00064514	934.62	2.5559e-05	2.5759e-05	1213	254.2	2.5845e-05	2.5904e-05	451.98	176.86	94.269	42.985	2.6183e-05	84.972	32.001	65.226	-26.962	-109.698	88.239	232.994	-109.735	-104.092	5.847	39.335	-104.190	-99.255	-98.716	-94.256	149.455	-95.677	-8191	255	
882.960	1	1	0	0	0.32833	0.1342	0.42952	0.14993	0.11822	0.23946	0.058927	0.041874	0.052173	0.30871	0.25245	0.13477	0.32853	0.075965	0.2374	0.26601	-2.3021	-2.5958	-3.0104	-2.7604	-2.7562	-2.7125	-2.5312	-3.0542	-2.6146	-2.3771	-2.9562	-2.2958	-2.7146	-2.8125	-2.2729	-3.0062	39.981	-108.627	49.965	176.802	34.813	28.071	69.729	-86.148	122.646	-107.358	197.636	-40.884	207.606	197.516	-18.251	176.436	0.0017126	0.0027875	0.00037493	843.22	1.0641e-05	1.5314e-05	1130.8	217.01	2.4463e-05	5.5474e-06	389.74	153.06	76.929	35.865	2.025e-05	77.683	0.0023616	0.0023988	0.00066725	939.81	2.6092e-05	2.6237e-05	1215.3	253.59	2.6023e-05	2.6064e-05	447.86	174.12	93.039	42.305	2.5693e-05	83.608	38.469	-73.248	40.304	-109.794	63.705	203.578	-109.750	-104.132	-104.837	-1.341	-103.669	-99.576	-99.017	-94.235	71.021	-95.380	-8191	255	
883.056	1	1	0	0	0.11951	0.050841	0.32232	0.1865	0.074706	0.20624	0.12799	0.0071303	0.15465	0.34916	0.10094	0.18783	0.082943	0.21327	0.032399	0.2132	-2.1792	-2.4646	-2.7146	-2.7292	-2.4813	-2.7812	-2.6437	-2.7417	-2.5667	-2.4188	-2.9917	-2.6625	-2.4313	-3.0021	-2.2896	-2.9854	-51.796	38.601	41.044	127.834	19.742	89.757	208.007	1.866	-14.291	182.005	160.153	212.209	-24.316	-28.076	135.983	226.701	0.0015893	0.0010233	0.00069045	837.11	1.6003e-05	1.9288e-05	1125.6	216.25	1.9749e-05	1.2135e-05	391.58	150.98	75.062	35.671	4.5071e-06	77.435	0.002298	0.0023284	0.00064715	933.41	2.5568e-05	2.5556e-05	1208.2	251.87	2.5401e-05	2.5596e-05	445.2	172.81	91.93	42.071	2.5439e-05	82.919	51.045	108.474	-40.161	-109.694	10.767	44.825	-110.121	-104.020	23.378	14.130	-104.030	-99.356	-98.416	-94.150	207.734	-95.696	-8191	255	
883.177	1	1	0	0	0.047281	0.20506	0.21892	0.28971	0.028937	0.28788	0.13134	0.14949	0.25119	0.30314	0.23246	0.12598	0.23028	0.28714	0.12474	0.10608	-2.3563	-2.4229	-2.7333	-2.5792	-2.5292	-2.9729	-2.5708	-2.6396	-2.7604	-2.5146	-3.0187	-2.7104	-2.6208	-2.8354	-2.4042	-2.7979	40.589	76.178	181.637	203.221	-32.578	176.828	134.283	216.813	80.112	112.963	-8.880	205.729	133.054	209.553	163.809	230.371	0.0023085	0.00058166	0.00031143	838.75	1.3746e-05	8.817e-06	1132.9	217.28	1.4785e-05	1.3905e-05	387.94	150.9	75.201	35.888	1.208e-05	77.802	0.002271	0.0022976	0.00063812	931.74	2.4907e-05	2.5051e-05	1208.7	250.77	2.4883e-05	2.5003e-05	441.56	171.81	91.653	42.037	2.5105e-05	83.261	29.195	133.624	111.667	-109.550	-87.750	19.745	-109.821	-104.006	-69.622	-107.480	-104.443	-99.007	-98.352	-94.172	-20.726	-95.653	-8191	255	
883.273	1	1	0	0	0.11594	0.31445	0.070299	0.069912	0.10438	0.24776	0.12976	0.13673	0.1546	0.30806	0.1585	0.034586	0.16751	0.079651	0.091453	0.12541	-2.3375	-2.5062	-2.8438	-2.6479	-2.3812	-2.9354	-2.6229	-2.7417	-2.8312	-2.5	-2.9708	-2.8479	-2.5208	-2.9604	-2.5375	-2.8521	104.579	-106.376	120.414	-80.270	-99.670	-2.928	184.841	-107.237	-105.805	-78.361	107.098	5.459	166.668	-57.202	36.797	-121.021	0.0013541	0.0015728	0.00053191	841.9	9.4908e-06	6.2485e-06	1140	219.11	3.4229e-05	2.1035e-05	388.97	151.62	75.723	36.122	1.3169e-05	77.539	0.0022712	0.0023016	0.00063923	932.53	2.5222e-05	2.5376e-05	1212.9	253.19	2.5434e-05	2.5504e-05	445.56	173.31	92.455	42.375	2.5625e-05	83.768	12.679	192.333	9.608	-109.821	220.165	83.689	-109.706	-104.083	112.272	74.440	-104.248	-99.521	-98.913	-93.836	52.483	-95.520	-8191	255	
883.369	1	1	0	0	0.066551	0.12608	0.17083	0.33895	0.1227	0.14721	0.25905	0.29732	0.24506	0.1914	0.11126	0.21891	0.24695	0.10814	0.23207	0.21067	-2.3187	-2.1625	-2.6604	-2.8417	-2.4083	-2.9292	-2.725	-2.6917	-2.8917	-2.5229	-2.6979	-2.7083	-2.3812	-2.925	-2.7354	-2.6146	204.201	-0.769	101.267	237.968	42.411	181.354	211.785	195.249	82.526	225.115	212.512	206.921	33.255	150.200	-23.454	-113.532	0.0010918	0.0024982	0.00023652	842.51	3.5783e-05	1.2221e-05	1132.5	218.16	1.8512e-05	2.2328e-05	387.21	148.93	74.296	35.414	9.6677e-06	76.326	0.0023112	0.0023475	0.00065164	936.17	2.5586e-05	2.5604e-05	1210.9	252.29	2.5439e-05	2.5523e-05	442.73	170.3	90.89	41.557	2.5373e-05	82.164	46.911	-72.753	-40.179	-109.873	-77.241	-66.834	-109.862	-103.984	-24.810	-29.048	-104.018	-99.381	-99.079	-93.888	187.192	-95.700	-8191	255	
883.465	1	1	0	0	0.23619	0.12621	0.064372	0.12156	0.20486	0.27297	0.085475	0.12717	0.19936	0.19992	0.22573	0.16328	0.2506	0.14246	0.15732	0.3527	-2.5458	-2.2854	-2.7875	-2.8146	-2.4958	-2.8083	-2.875	-2.5917	-2.8396	-2.4583	-2.8583	-2.8688	-2.4208	-3.0896	-2.7667	-2.6083	-45.692	38.421	-80.809	144.257	8.708	22.164	166.207	173.204	91.090	195.675	171.522	20.159	148.161	148.267	180.154	-106.492	0.0022918	0.0019935	0.00045155	839.65	3.7378e-06	1.0226e-05	1123.3	218.09	2.3338e-06	2.1134e-05	385.98	148.75	74.228	34.663	4.9773e-06	75.434	0.0022724	0.0023083	0.00064141	931.17	2.5187e-05	2.5251e-05	1204	250.79	2.4987e-05	2.5117e-05	440.37	169.07	90.424	41.157	2.5266e-05	81.268	53.661	12.273	-73.002	-109.403	3.915	124.014	-109.798	-104.283	23.691	28.755	-104.068	-99.173	-98.129	-94.102	109.874	-95.518	-8191	255	
883.537	1	1	0	0	0.20271	0.10528	0.1439	0.20022	0.25744	0.21236	0.16514	0.27731	0.15646	0.098375	0.31435	0.1804	0.15022	0.038416	0.14997	0.26414	-2.5208	-2.5229	-2.5812	-2.7812	-2.4625	-2.8833	-2.8292	-2.7458	-2.7146	-2.5958	-2.6271	-2.8021	-2.6271	-2.7979	-2.6667	-2.6479	-23.418	-21.314	104.702	168.704	148.318	4.499	53.015	54.786	92.532	88.319	-87.943	221.508	87.938	216.896	124.191	233.940	0.00061038	0.00262	0.00014746	839.68	2.0989e-05	2.639e-05	1129.3	217.06	5.8187e-06	4.512e-06	383.35	146.94	73.633	34.402	9.7688e-06	74.673	0.0022818	0.0023082	0.00064303	931.44	2.5304e-05	2.5422e-05	1208	251.47	2.5315e-05	2.5437e-05	438.99	168.85	90.239	40.954	2.5545e-05	80.816	33.543	166.995	31.243	-109.506	218.609	74.595	-109.641	-103.843	149.919	230.357	-104.390	-99.145	-98.074	-93.500	-26.975	-95.365	-8191	255	
883.656	1	1	0	0	0.094626	0.024519	0.18148	0.25777	0.16902	0.39719	0.10144	0.055988	0.12804	0.12453	0.093281	0.14214	0.36102	0.21265	0.10578	0.33002	-2.4042	-2.5646	-2.6125	-2.7979	-2.4313	-2.8292	-2.875	-2.4146	-2.9437	-2.3917	-2.5729	-2.9604	-2.7542	-2.5312	-2.7562	-2.4437	13.118	160.377	-116.831	-114.084	57.309	-99.181	-24.078	225.951	-114.565	22.971	136.054	163.655	228.097	148.556	4.655	-107.575	0.0012716	0.00036812	0.00044279	836.62	2.313e-05	5.2632e-06	1121.7	215.8	3.9463e-06	1.1266e-05	377.97	147.09	73.908	34.815	4.2866e-06	75.498	0.0022988	0.0023359	0.00065005	933.16	2.5562e-05	2.5677e-05	1204.5	251.38	2.5758e-05	2.5935e-05	440.05	169.61	90.876	41.464	2.6013e-05	81.772	71.114	-99.119	231.070	-109.552	-100.287	195.062	-109.424	-103.522	41.977	-100.261	-104.111	-99.049	-98.474	-93.530	-41.989	-95.037	-8191	255	
883.752	1	1	0	0	0.2471	0.15104	0.062872	0.33171	0.099768	0.070354	0.15069	0.25407	0.13514	0.25014	0.19655	0.16065	0.08935	0.16626	0.23668	0.12311	-2.4833	-2.5417	-2.5438	-3.0708	-2.3604	-2.6396	-2.9667	-2.3417	-2.8646	-2.6063	-2.4208	-2.7771	-2.5792	-2.5979	-2.8021	-2.5292	-74.029	24.598	62.159	-118.892	65.230	152.618	168.871	201.912	43.970	-107.314	107.996	228.756	-118.072	179.062	88.337	44.160	0.0016852	0.0014226	0.00044037	838.03	2.4646e-05	1.1054e-05	1118.2	217.09	1.4274e-05	6.6151e-06	386.98	151.08	75.138	35.983	2.2373e-06	77.64	0.0023376	0.0023687	0.00065968	935.43	2.6141e-05	2.6265e-05	1205.3	252.8	2.623e-05	2.6299e-05	445.34	173.48	92.726	42.547	2.6395e-05	84.048	44.283	-19.097	-65.662	-109.506	-60.526	-1.518	-109.890	-103.740	86.156	212.610	-103.829	-99.186	-98.524	-93.885	-1.137	-95.237	-8191	255	
883.848	1	1	0	0	0.21061	0.12269	0.071929	0.098854	0.16353	0.28052	0.26914	0.21508	0.16993	0.18516	0.26412	0.17816	0.16701	0.11456	0.097545	0.35942	-2.4854	-2.6167	-2.3979	-3.0083	-2.6354	-2.6167	-2.9958	-2.5167	-2.6958	-2.6208	-2.5458	-3.0271	-2.5729	-2.7583	-2.7687	-2.5229	-59.183	170.626	79.443	-44.419	-77.271	144.583	159.447	236.953	39.510	26.090	231.428	104.315	-109.990	187.204	207.765	132.940	0.0021929	0.00053904	0.00016417	835.09	1.0473e-05	1.0063e-05	1120.5	220.49	3.191e-05	1.0896e-05	389.08	153.48	76.668	37.034	7.4666e-06	78.861	0.0023838	0.0024191	0.00067019	938.2	2.6352e-05	2.6709e-05	1207.8	256.15	2.6759e-05	2.6977e-05	451.55	176.96	95.134	43.677	2.7199e-05	85.232	20.352	-47.074	155.001	-109.443	-72.981	38.978	-110.053	-103.808	16.747	224.030	-104.020	-99.191	-98.754	-93.775	17.793	-95.451	-8191	255	
883.944	1	1	0	0	0.15785	0.16311	0.1971	0.25074	0.15078	0.19196	0.17008	0.34946	0.090307	0.35171	0.30807	0.15103	0.089469	0.22975	0.22688	0.13214	-2.4188	-2.6208	-2.3083	-3.0396	-2.6312	-2.6146	-3.1083	-2.35	-2.7562	-2.9708	-2.4708	-2.9188	-2.7542	-2.6854	-3.0167	-2.6417	-77.425	201.940	69.088	173.677	171.172	80.129	-99.730	-93.914	37.695	-37.776	213.038	-70.343	-45.586	190.099	-81.651	224.635	0.0019437	0.0013324	0.0004991	837.55	2.262e-05	1.6562e-05	1115.2	217.98	1.5569e-05	5.352e-06	392.11	153.16	77.036	36.569	1.0391e-05	78.162	0.0024442	0.0024755	0.00068857	945.37	2.7075e-05	2.7134e-05	1206.1	255.97	2.6933e-05	2.704e-05	451.4	176.71	95.34	43.477	2.7247e-05	85.172	72.025	177.470	-30.636	-109.333	-101.967	-56.358	-109.768	-104.044	94.905	97.752	-104.387	-99.773	-98.895	-93.765	42.293	-95.667	-8191	255	
884.065	1	1	0	0	0.15773	0.08867	0.087028	0.19488	0.10052	0.13037	0.18829	0.28367	0.1142	0.061368	0.17196	0.23394	0.15984	0.33908	0.052868	0.26769	-2.2917	-2.5833	-2.375	-2.8917	-2.6667	-2.4625	-3.0042	-2.5458	-2.6771	-2.7896	-2.5771	-2.85	-2.6188	-2.475	-3.1229	-2.7062	60.461	-118.805	-70.943	19.079	-6.194	204.755	208.689	173.717	-26.420	120.296	165.954	212.115	-15.078	182.890	111.950	233.521	0.0016286	0.0025892	0.00046665	839.4	1.6327e-05	2.6162e-06	1124.1	219.11	1.337e-05	1.923e-05	395.31	155.49	78.661	37.171	7.6739e-06	79.106	0.0024826	0.0025303	0.00070885	952.9	2.8035e-05	2.8398e-05	1223.2	262.81	2.9125e-05	2.9431e-05	465.65	183.01	99.159	44.87	2.983e-05	87.203	52.896	-32.412	32.657	-109.474	158.661	28.251	-109.890	-104.031	28.123	58.197	-103.952	-99.558	-98.428	-93.878	136.615	-95.648	-8191	255	
884.136	1	1	0	0	0.13579	0.30679	0.16172	0.19979	0.1669	0.11483	0.20022	0.10628	0.06738	0.074574	0.055263	0.20392	0.042062	0.23001	0.17161	0.060901	-2.2458	-2.8312	-2.3917	-3.1021	-2.7792	-2.7	-3.1667	-2.6667	-2.4917	-2.8854	-2.3937	-3.0042	-2.8667	-2.3896	-2.9896	-2.7875	-94.275	11.195	-69.973	-49.565	-4.874	58.549	206.898	118.855	-98.441	91.423	237.883	-70.883	168.022	126.694	157.162	130.179	0.0017302	0.0013057	0.00049677	841.31	1.8472e-05	2.4745e-06	1119.5	220.49	2.6161e-05	9.6802e-06	392.74	153.81	77.86	36.771	1.2789e-05	78.685	0.002689	0.0027283	0.00075365	966.86	2.9411e-05	2.9375e-05	1230.5	262.59	2.9079e-05	2.9109e-05	460.98	180.62	97.135	44.107	2.865e-05	86.228	17.341	24.936	-22.413	-109.469	161.895	152.818	-109.887	-104.062	144.743	61.732	-104.429	-99.026	-98.632	-93.788	61.567	-95.566	-8191	255	
884.257	1	1	0	0	0.069172	0.12878	0.12305	0.13291	0.19117	0.28106	0.12778	0.15814	0.19128	0.29854	0.077579	0.18522	0.20264	0.17359	0.17689	0.11661	-2.2646	-2.8146	-2.6021	-2.9771	-2.6146	-2.3979	-3.0125	-2.6354	-2.6083	-3.0229	-2.5646	-2.8146	-2.8271	-2.4208	-2.6688	-2.7	130.646	-17.041	70.861	-76.305	-56.229	93.589	160.532	178.253	55.666	81.657	41.502	-55.652	187.348	171.493	167.854	12.616	0.0012663	0.00080566	0.00071995	842.26	1.3171e-05	1.4361e-05	1130.3	222.28	9.02e-06	1.5763e-05	393.74	156.79	79.193	38.057	1.5333e-05	80.731	0.0025809	0.0026074	0.00072445	958.31	2.8225e-05	2.8299e-05	1227.4	261.84	2.8034e-05	2.8267e-05	459.83	180.87	97.498	44.813	2.7869e-05	87.521	43.842	39.086	-116.837	-109.654	140.867	112.049	-109.829	-103.926	-2.113	71.519	-104.255	-99.162	-98.835	-93.747	-10.981	-95.460	-8191	255	
884.353	1	1	0	0	0.22425	0.064298	0.23796	0.006241	0.049434	0.34409	0.039664	0.16028	0.17471	0.17923	0.23055	0.20248	0.16501	0.24105	0.18663	0.37642	-2.1292	-2.9062	-2.4542	-2.7354	-2.7	-2.3875	-2.8417	-2.5333	-2.5812	-3.0396	-2.4354	-2.6104	-2.7583	-2.5646	-2.7958	-2.9167	98.347	58.079	209.273	-120.947	-110.991	74.522	101.156	176.811	143.950	-24.669	-101.909	162.241	163.172	190.422	10.462	205.632	0.0010937	0.0010919	0.00061364	836.9	1.4257e-05	1.9129e-05	1117.8	224.22	8.0743e-06	1.1981e-05	397.01	161.11	81.356	39.823	8.3883e-06	83.868	0.0025044	0.0025388	0.00070761	951.35	2.7922e-05	2.8071e-05	1220.4	263.59	2.8129e-05	2.8334e-05	461.41	185.02	100.12	46.92	2.82e-05	90.522	31.749	-99.279	-30.373	-109.566	-85.164	169.776	-109.854	-103.507	54.283	40.638	-104.115	-99.174	-98.817	-94.087	-121.273	-95.731	-8191	255	
884.449	1	1	0	0	0.15253	0.18669	0.22346	0.12263	0.13296	0.17718	0.1663	0.1853	0.16126	0.149	0.1682	0.10512	0.27263	0.10957	0.10527	0.50743	-1.8438	-2.9646	-2.5938	-2.7479	-3.0708	-2.1917	-2.7917	-2.7708	-2.4146	-2.8583	-2.5917	-2.6958	-2.8875	-2.5771	-2.7729	-2.7521	172.042	42.704	149.290	177.922	39.742	-12.742	-84.553	-75.691	72.787	108.611	121.419	-77.776	227.206	229.303	62.919	187.540	0.0024154	0.00092644	0.00036144	831.71	2.7902e-05	7.5844e-06	1117.7	224.46	3.0371e-05	6.5474e-06	397.96	161.78	83.173	41.184	1.1182e-05	84.787	0.0025488	0.0025933	0.00071946	950.43	2.8082e-05	2.84e-05	1219.6	265.31	2.8332e-05	2.8659e-05	464.1	187.25	101.51	47.891	2.8829e-05	92.059	46.041	124.430	73.708	-109.424	5.961	95.674	-109.887	-103.583	-100.430	-42.104	-104.028	-99.315	-98.668	-94.616	128.811	-95.595	-8191	255	
884.545	1	1	0	0	0.16398	0.15544	0.078407	0.40642	0.22051	0.18917	0.20936	0.34981	0.06262	0.19108	0.1788	0.1626	0.12084	0.11674	0.32772	0.22209	-1.9792	-2.9729	-2.6854	-2.6375	-2.7521	-2.5625	-2.95	-2.8125	-2.3583	-2.9	-2.5979	-2.5542	-2.9479	-2.5229	-2.475	-2.9354	171.087	1.608	23.604	226.724	139.916	-70.859	89.433	2.330	192.565	-9.213	156.473	-36.249	-84.251	89.450	56.673	177.123	0.0020958	0.0033151	0.00048094	839.62	1.4051e-05	1.7793e-05	1109.1	225.1	2.363e-05	1.8766e-05	402.29	162.8	82.427	40.552	2.0124e-06	84.382	0.0026029	0.0026373	0.0007379	955.99	2.8933e-05	2.9044e-05	1216.3	266.81	2.9153e-05	2.9369e-05	469.83	188.71	101.74	47.623	2.9088e-05	91.553	54.413	226.282	33.293	-109.516	-11.122	99.768	-109.772	-103.909	126.191	-70.176	-103.683	-99.535	-98.862	-94.107	227.614	-95.832	-8191	255	
884.664	1	1	0	0	0.10374	0.16616	0.176	0.1378	0.022715	0.21237	0.077719	0.20779	0.031282	0.23127	0.20927	0.15538	0.080272	0.11581	0.20235	0.22962	-1.9354	-2.6875	-2.7375	-2.4083	-2.9271	-2.5687	-2.8896	-2.9313	-2.2875	-2.6688	-2.7646	-2.6854	-3.025	-2.6854	-2.6875	-2.9917	54.510	88.847	-25.098	-119.768	168.021	-67.393	220.546	174.202	147.313	4.934	-49.881	98.812	-72.543	-33.211	99.712	228.750	0.0022667	0.0017335	0.00025627	842.74	5.3058e-06	6.9404e-06	1113.1	224.12	1.2675e-05	2.3158e-05	396.91	157.09	78.585	37.868	1.4429e-05	79.662	0.002617	0.0026532	0.00073624	959.69	2.8851e-05	2.8924e-05	1220.7	264.29	2.8457e-05	2.8702e-05	461.44	182.14	97.728	45.022	2.8445e-05	87.087	82.784	125.378	-7.466	-109.621	-4.561	-79.162	-109.922	-103.819	56.859	32.712	-103.646	-99.256	-98.826	-94.088	38.869	-95.556	-8191	255	
884.738	1	1	0	0	0.081211	0.20764	0.25343	0.22977	0.15668	0.11972	0.072247	0.064214	0.077427	0.20222	0.37514	0.047298	0.10493	0.016155	0.078889	0.16134	-1.9688	-2.8292	-2.6729	-2.4771	-2.6896	-2.5167	-2.75	-3.0875	-2.4771	-2.7958	-2.8917	-2.4604	-2.9604	-2.7938	-2.6333	-2.9833	166.186	133.700	201.357	226.050	126.267	135.928	201.683	136.096	181.786	160.602	217.129	-17.048	62.610	-27.940	224.951	106.253	0.0011038	0.0028529	0.00040714	846.83	1.8082e-05	2.0375e-05	1121.8	218.7	8.8413e-06	5.7137e-06	388.68	151.11	76.73	36.171	3.7505e-06	77.451	0.0025561	0.0025934	0.00072301	962.64	2.8284e-05	2.8396e-05	1220.2	259.97	2.8316e-05	2.8592e-05	455.07	177.26	95.791	43.532	2.8612e-05	84.802	69.389	-101.022	-31.318	-109.845	-6.582	-41.615	-110.102	-103.724	-53.686	-35.858	-104.384	-99.255	-98.853	-93.362	4.404	-95.728	-8191	255	
884.857	1	1	0	0	0.13109	0.22939	0.04353	0.28529	0.27409	0.28102	0.232	0.22589	0.08708	0.12494	0.14917	0.34346	0.21413	0.15905	0.075332	0.39644	-2.1229	-2.8292	-2.8708	-2.6229	-2.9458	-2.6792	-2.5458	-2.9104	-2.5208	-2.7417	-2.8917	-2.65	-2.7104	-2.7417	-2.4229	-2.9104	-53.873	24.376	-28.021	234.769	-65.178	21.484	134.843	161.425	-12.769	12.010	210.710	-85.386	-61.629	222.915	-52.378	179.100	0.0019624	0.0021618	0.00045944	854.04	2.0641e-05	7.8728e-06	1116.2	220.17	2.1064e-05	9.9903e-06	386.76	153.04	77.105	36.536	9.3429e-06	78.899	0.0025861	0.0026367	0.00073821	968.83	2.8967e-05	2.9101e-05	1226.4	261.55	2.9096e-05	2.9406e-05	457.96	179.83	96.781	44.3	2.9135e-05	86.502	7.315	-73.596	79.385	-109.625	-32.213	133.641	-109.535	-103.947	-16.442	-89.823	-103.986	-99.551	-98.954	-93.834	49.433	-95.655	-8191	255	
884.953	1	1	0	0	0.098322	0.091022	0.14156	0.21583	0.27927	0.074662	0.091223	0.12275	0.24338	0.11455	0.33193	0.06276	0.11969	0.24083	0.1317	0.11514	-2.0312	-2.6042	-2.7812	-2.4313	-2.7354	-2.6937	-2.7208	-2.9417	-2.4396	-2.5958	-2.7229	-2.4458	-2.8063	-2.7229	-2.3812	-2.9104	133.703	236.846	-43.006	159.942	208.476	-50.125	172.283	120.381	205.061	216.142	17.894	167.724	236.657	186.668	-79.358	26.309	0.0011824	0.0010614	0.00037449	849.24	1.9157e-05	9.8272e-06	1111.7	220.32	2.1974e-05	1.6392e-05	392.56	154.87	78.187	37.936	1.3356e-05	81.293	0.0026263	0.0026873	0.00074881	965.85	2.9541e-05	2.9717e-05	1221.8	263.64	2.9708e-05	2.9922e-05	463.61	183.11	98.674	45.742	3.0045e-05	88.963	19.314	55.726	63.441	-109.654	109.255	-74.584	-109.993	-104.014	55.268	65.330	-103.983	-99.040	-98.659	-93.817	39.780	-95.826	-8191	255	
885.049	1	1	0	0	0.17476	0.26272	0.14444	0.20186	0.2708	0.050601	0.19658	0.10186	0.13807	0.15176	0.18583	0.13819	0.14752	0.14538	0.080047	0.067156	-2.0646	-2.6542	-2.6729	-2.3667	-2.7979	-2.8083	-2.3854	-3.0083	-2.6437	-2.6042	-2.9896	-2.5833	-2.925	-2.5875	-2.4896	-3.1125	84.959	162.069	200.266	116.398	-43.220	204.726	54.870	-107.270	29.918	174.217	-98.160	-62.667	101.622	-105.124	219.534	98.409	0.0016312	0.0012317	0.00037721	837.86	1.4277e-05	1.1159e-05	1111.6	221.1	1.5879e-05	7.3986e-06	392.18	156.2	79.243	38.365	1.6525e-05	81.302	0.0027064	0.0027488	0.00076103	964.09	2.9921e-05	2.9922e-05	1222.3	264.45	2.9717e-05	2.9645e-05	463.86	183.33	98.755	45.775	2.9262e-05	88.87	60.092	-40.360	7.289	-108.957	-1.334	80.330	-109.614	-103.525	-85.859	134.050	-103.646	-99.068	-98.384	-93.665	-109.183	-95.364	-8191	255	
885.145	1	1	0	0	0.10987	0.13134	0.20609	0.29415	0.077303	0.14217	0.083956	0.29559	0.15343	0.19637	0.11893	0.22925	0.16322	0.20485	0.18984	0.20571	-1.9708	-2.4167	-2.8021	-2.5542	-2.8833	-2.6	-2.5854	-2.8667	-2.5875	-2.6521	-2.9	-2.5833	-2.7875	-3.0563	-2.3208	-2.975	36.552	12.563	35.285	204.816	-24.666	-78.579	186.699	233.983	58.756	190.215	200.337	155.419	161.285	229.177	7.065	12.715	0.0020906	0.00016052	0.00056282	842.32	2.5234e-05	1.7427e-05	1111.6	219.76	9.6174e-06	9.4465e-06	391.56	155.27	78.021	37.825	2.4176e-06	80.614	0.0026177	0.0026577	0.00074318	961.59	2.8932e-05	2.9016e-05	1217.3	261.94	2.8612e-05	2.8701e-05	457.86	180.71	97.434	45.18	2.8903e-05	87.871	66.541	68.674	31.321	-109.582	236.426	50.712	-109.553	-103.371	207.262	65.019	-103.849	-98.958	-98.094	-93.424	-1.703	-95.375	-8191	255	
885.241	1	1	0	0	0.17237	0.14938	0.11023	0.033148	0.21017	0.14976	0.19755	0.13809	0.12943	0.2058	0.15463	0.12783	0.27262	0.26964	0.15802	0.1142	-2.4313	-2.5146	-2.8229	-2.6979	-2.6792	-2.8812	-2.7604	-2.8083	-2.6667	-2.4021	-3.0958	-2.4604	-2.775	-2.9083	-2.4396	-2.8312	-11.811	29.274	-58.842	171.164	-15.149	133.736	-69.862	159.526	221.731	234.129	153.979	129.371	231.370	-117.798	-74.550	135.322	0.0025069	0.00088428	0.00048253	842.2	2.4781e-05	3.1465e-05	1111.7	220.29	1.2496e-05	1.3255e-05	393.32	157.57	79.263	39.151	1.4296e-05	82.452	0.0026356	0.0026725	0.0007477	962.63	2.9521e-05	2.9751e-05	1217.4	264.57	2.9919e-05	3.0223e-05	466.12	185.82	100.24	46.968	3.0825e-05	91.067	24.688	10.286	9.650	-109.505	-16.746	99.155	-109.888	-103.535	128.051	226.576	-104.241	-99.159	-98.484	-94.136	229.310	-95.496	-8191	255	
885.362	1	1	0	0	0.19695	0.10168	0.010615	0.10954	0.16942	0.11367	0.050482	0.15681	0.076399	0.088286	0.17836	0.068724	0.16653	0.24348	0.27902	0.32969	-2.3812	-2.4708	-2.8563	-2.725	-2.6021	-2.825	-2.6188	-2.7583	-2.6521	-2.4708	-3.1146	-2.6604	-2.7542	-2.8937	-2.4167	-2.7125	-93.359	190.256	147.157	138.658	-85.345	88.943	-110.481	168.817	-96.384	-69.024	86.442	236.524	195.003	222.275	65.046	140.193	0.0018254	0.0012572	0.00025737	834.96	2.0907e-05	1.5378e-05	1096.6	223.29	2.4596e-05	7.7308e-06	394.94	159.92	80.302	39.304	1.9026e-05	83.096	0.0027958	0.0028577	0.00080244	973.4	3.1598e-05	3.1711e-05	1227.7	271.06	3.1692e-05	3.1939e-05	475.19	189.49	102.2	47.602	3.151e-05	91.662	94.593	-106.006	188.620	-109.276	230.580	113.082	-109.658	-103.695	134.204	24.165	-103.897	-99.563	-98.506	-94.224	-113.597	-95.980	-8191	255	
885.434	1	1	0	0	0.11156	0.25492	0.090993	0.16294	0.3531	0.19864	0.095715	0.205	0.17247	0.12683	0.14884	0.13719	0.36651	0.22722	0.13357	0.24299	-2.3729	-2.3625	-2.725	-2.8479	-2.5375	-2.925	-2.7875	-2.7417	-2.8792	-2.3812	-2.9833	-2.7708	-2.4583	-3.1229	-2.6542	-2.8896	-106.657	188.499	11.729	-62.831	-18.367	86.832	-110.221	-74.814	217.358	19.247	208.110	-107.285	-75.604	125.233	-58.336	201.064	0.0022918	0.0017659	0.00037003	835.37	2.518e-05	1.3837e-05	1110.4	220.93	1.8217e-05	2.8405e-06	389.27	151.1	75.336	36.485	1.5409e-05	77.709	0.0028287	0.0028473	0.00079084	969.09	3.0636e-05	3.0629e-05	1224.2	264.64	3.0064e-05	3.0118e-05	459.59	178.74	95.729	44.207	2.9277e-05	85.718	37.005	142.829	74.531	-109.629	66.193	101.928	-109.167	-103.357	196.053	111.997	-103.893	-99.159	-98.022	-93.323	19.296	-95.111	-8191	255	
885.530	1	1	0	0	0.47473	0.27098	0.21674	0.11502	0.37788	0.0068608	0.12148	0.086595	0.055419	0.11468	0.26634	0.20353	0.2103	0.072111	0.19301	0.12192	-2.3375	-2.3521	-2.9938	-2.7229	-2.5208	-2.8271	-2.6562	-2.5854	-2.8229	-2.4688	-3.0396	-2.6875	-2.5208	-2.8854	-2.5479	-2.8458	-8.201	205.047	-58.794	215.616	176.257	45.753	148.206	25.299	69.954	32.232	171.946	177.104	204.914	-91.093	-39.858	158.392	0.0018068	0.00064016	0.00063947	842.18	6.8503e-06	5.6803e-06	1117.1	216.77	3.8198e-05	7.5406e-06	383.14	147.26	73.457	34.788	7.7147e-06	74.423	0.0026157	0.0026542	0.00073616	959.74	2.8454e-05	2.8513e-05	1217.3	257.52	2.8018e-05	2.8102e-05	448.23	172.07	92.066	42.093	2.7821e-05	82.395	31.999	205.410	133.267	-109.555	31.180	-103.649	-110.065	-104.501	16.963	-11.042	-104.437	-99.511	-98.838	-93.518	6.434	-95.741	-8191	255	
885.626	1	1	0	0	0.11473	0.30285	0.24187	0.3742	0.16093	0.20484	0.13582	0.081591	0.077623	0.17467	0.02807	0.18518	0.15239	0.18788	0.16513	0.090666	-2.5875	-2.4313	-2.6271	-2.8104	-2.3896	-2.9229	-2.6667	-2.7167	-2.9833	-2.5854	-2.9542	-2.9021	-2.4229	-3.0438	-2.6708	-2.4771	196.046	146.095	-54.302	134.359	20.683	59.178	151.592	-73.072	233.701	-10.737	107.025	99.645	-42.537	141.229	-20.713	181.757	0.0011927	0.0021883	0.00034683	854.95	2.4324e-05	1.7309e-05	1128.1	213.61	6.8922e-06	3.536e-06	371.13	140.87	70.199	32.808	1.3989e-05	70.694	0.0025292	0.0025759	0.00071704	966.8	2.8139e-05	2.8216e-05	1222.2	254.5	2.8286e-05	2.8509e-05	442.91	167.9	89.926	40.562	2.8668e-05	79.455	31.579	-22.322	148.146	-110.114	66.527	72.112	-110.054	-104.458	43.086	144.645	-104.331	-99.794	-98.821	-94.106	22.903	-95.854	-8191	255	
885.745	1	1	0	0	0.13433	0.15569	0.16837	0.36179	0.055932	0.093486	0.40311	0.18827	0.16557	0.034713	0.14459	0.37139	0.30138	0.2917	0.061087	0.42342	-2.5417	-2.3354	-2.5021	-3.0792	-2.3875	-2.9604	-2.8625	-2.6312	-2.8542	-2.6625	-2.8583	-2.9104	-2.3792	-2.9292	-2.6417	-2.6021	-39.852	41.059	9.644	171.785	107.066	209.301	201.957	194.516	187.865	64.579	76.955	194.774	172.014	212.818	181.574	181.654	0.0016226	0.001353	0.00023234	857.88	1.5962e-05	7.1187e-06	1124.2	213.03	3.2333e-06	1.2436e-05	376.5	141.97	70.726	33.599	1.4532e-05	74.183	0.0025978	0.0026693	0.00074566	975.85	2.9609e-05	2.9926e-05	1233.8	257.71	2.9962e-05	2.9951e-05	449.25	170.56	91.923	41.807	2.9895e-05	82.458	30.148	33.372	147.879	-110.148	173.118	54.939	-110.428	-104.528	-35.915	-96.271	-104.333	-99.774	-98.997	-94.094	19.528	-95.551	-8191	255	
885.841	1	1	0	0	0.014005	0.04889	0.27825	0.21796	0.20346	0.25594	0.23883	0.21729	0.17617	0.062518	0.25738	0.030607	0.1957	0.18369	0.14215	0.18501	-2.6021	-2.5021	-2.7208	-2.7146	-2.3729	-2.8937	-3.1042	-2.5146	-2.9542	-2.5979	-2.7917	-2.875	-2.4729	-2.6542	-2.75	-2.5542	177.841	-112.810	102.054	184.325	59.849	-29.932	152.321	-84.067	-54.609	194.571	192.418	46.206	175.993	215.121	-83.066	161.950	0.0011023	0.0018649	8.5463e-05	850.31	1.2137e-05	5.182e-06	1118	217.68	2.4984e-05	6.8503e-06	384.98	147.9	74.106	35.625	1.262e-05	77.14	0.0026833	0.0027265	0.00075884	973.23	2.9604e-05	2.961e-05	1228.4	259.81	2.921e-05	2.9122e-05	453.16	174.37	93.762	43.225	2.8771e-05	84.522	58.483	-57.994	129.192	-109.965	-96.991	176.660	-109.676	-104.264	161.924	-99.622	-104.065	-98.882	-98.844	-94.215	-12.154	-95.654	-8191	255	
885.937	1	1	0	0	0.14411	0.13478	0.16399	0.063421	0.15205	0.15206	0.12631	0.30705	0.15655	0.11302	0.23415	0.084471	0.29393	0.055304	0.2406	0.24091	-2.2687	-2.5479	-2.5687	-2.9875	-2.475	-2.6729	-3.0146	-2.2125	-3.0042	-2.6083	-2.6312	-3.0333	-2.65	-2.8583	-2.5354	-2.5583	-58.472	30.874	205.367	0.335	5.731	126.416	183.043	135.735	198.371	17.497	-111.636	-95.498	195.651	26.827	185.585	175.939	0.0014495	0.0015151	0.00044018	853.86	1.0574e-05	8.6499e-06	1126	218.25	4.2078e-05	1.0963e-05	381.08	144.16	71.328	33.838	3.5033e-06	72.552	0.0025789	0.0026232	0.00072948	968.83	2.8308e-05	2.8327e-05	1224.1	257.39	2.7781e-05	2.7911e-05	445.17	169.56	90.66	41.068	2.7432e-05	80.005	68.727	218.129	5.386	-109.944	-3.745	210.079	-109.362	-103.758	139.367	106.983	-104.181	-99.923	-98.551	-93.760	31.082	-95.172	-8191	255	
886.033	1	1	0	0	0.081173	0.17869	0.085165	0.16948	0.15699	0.075982	0.12021	0.22563	0.15454	0.060945	0.080657	0.20078	0.082703	0.1715	0.15337	0.43096	-2.5146	-2.6813	-2.3125	-2.9792	-2.4938	-2.9292	-2.7438	-2.5229	-2.8604	-2.6688	-2.4729	-3.0896	-2.6104	-2.6625	-2.9229	-2.5896	55.896	121.116	137.524	172.037	9.170	-51.270	212.448	174.873	81.577	-19.342	111.620	14.003	81.805	200.930	152.178	216.632	0.0021399	0.0011364	0.00068676	862.38	4.875e-06	1.18e-05	1129.1	216.96	1.0896e-05	9.4989e-06	370.73	139.77	69.889	32.88	1.3239e-06	70.404	0.0024536	0.0024818	0.00068733	964.06	2.6962e-05	2.6817e-05	1215.4	252.68	2.6583e-05	2.6506e-05	433.54	163.31	87.779	39.553	2.6008e-05	77.22	22.282	-84.031	24.268	-110.231	-55.824	47.302	-110.242	-104.498	-21.608	142.663	-104.363	-99.027	-98.726	-93.375	21.177	-95.252	-8191	255	
886.129	1	1	0	0	0.21155	0.26499	0.074902	0.038148	0.23246	0.088048	0.16634	0.2492	0.078747	0.082957	0.38178	0.18168	0.15751	0.26073	0.08589	0.085172	-2.275	-2.6792	-2.475	-2.8833	-2.4667	-2.6437	-2.9229	-2.5563	-2.7687	-2.8542	-2.45	-2.9833	-2.6792	-2.6021	-2.8979	-2.6292	66.180	121.300	-107.585	68.217	55.085	31.860	180.026	182.779	226.200	220.882	213.349	197.352	164.915	-111.070	88.583	60.147	0.00052267	0.0010263	0.00023589	851.4	1.2489e-05	1.702e-05	1114.9	214.14	5.2417e-06	6.3878e-06	370.09	138.22	69.603	32.575	6.7204e-06	70.454	0.0023374	0.0023857	0.0006631	951.3	2.6109e-05	2.644e-05	1200.9	250.72	2.6559e-05	2.678e-05	431.37	162.63	88.004	39.735	2.7034e-05	77.926	21.808	-92.314	87.364	-109.694	-71.110	43.420	-109.975	-104.076	-121.677	-57.535	-104.197	-99.448	-98.395	-93.960	21.615	-95.112	-8191	255	
886.225	1	1	0	0	0.25888	0.21518	0.090997	0.044077	0.21977	0.13707	0.1136	0.15279	0.38133	0.10803	0.10213	0.071599	0.25094	0.074212	0.19376	0.13165	-2.3917	-2.65	-2.4667	-2.9417	-2.4625	-2.75	-3.1229	-2.6167	-2.6542	-2.8833	-2.5729	-2.8021	-2.7896	-2.6312	-2.7917	-2.6583	65.967	-66.164	171.020	87.805	112.517	48.397	196.835	194.797	218.724	-18.871	43.284	-40.960	214.169	-106.382	175.938	110.161	0.001751	0.0012921	0.00016191	840.51	1.1047e-05	2.2421e-05	1106	213.77	3.209e-06	1.3802e-05	370.06	136.21	67.851	31.856	6.1354e-06	69.9	0.0024832	0.0025325	0.00071006	957.04	2.839e-05	2.8736e-05	1212.5	254.93	2.9089e-05	2.9396e-05	440.91	165.74	89.59	40.338	3.0166e-05	79.516	40.057	73.284	91.576	-109.372	-107.070	107.111	-109.465	-104.047	-105.054	231.436	-104.242	-98.822	-98.440	-93.211	88.160	-95.314	-8191	255	
886.346	1	1	0	0	0.1551	0.047525	0.040531	0.22861	0.12844	0.25705	0.28193	0.24188	0.12171	0.098335	0.1867	0.0063005	0.072894	0.24335	0.20021	0.11458	-2.3	-2.7625	-2.3146	-2.9354	-2.8333	-2.4771	-2.9021	-2.6521	-2.8542	-2.9125	-2.45	-2.9875	-2.8937	-2.5	-2.8521	-2.7229	-3.443	102.547	218.415	174.154	85.052	71.112	168.240	-25.781	-49.725	-114.902	225.870	-116.028	63.943	232.428	65.188	232.139	0.0016417	0.0007288	0.00031358	844.28	2.1779e-05	1.7938e-05	1111.4	211.51	2.0137e-05	1.472e-05	366.2	134.99	67.336	31.872	1.2219e-05	69.905	0.0027658	0.0028379	0.00079738	979.28	3.1681e-05	3.1867e-05	1237.1	261.47	3.2458e-05	3.2771e-05	453.65	169.92	91.972	41.594	3.354e-05	81.045	63.261	90.374	-113.385	-109.384	-77.942	17.688	-109.828	-103.958	78.663	-10.434	-103.879	-99.664	-98.998	-94.254	-22.202	-95.860	-8191	255	
886.442	1	1	0	0	0.075162	0.042201	0.1355	0.13304	0.1477	0.053932	0.21945	0.20812	0.10827	0.11993	0.082046	0.19202	0.069952	0.080737	0.1013	0.51932	-2.1562	-2.8937	-2.3792	-2.9167	-2.8042	-2.5708	-2.9708	-2.6167	-2.7438	-2.9646	-2.6125	-3.0125	-2.8396	-2.4354	-2.9583	-2.8	-69.114	-117.670	149.400	-112.381	128.277	-111.967	172.554	186.403	-16.907	140.333	5.643	-95.215	150.432	-77.597	-112.236	165.400	0.00032545	0.00086	0.0008816	837.23	1.1487e-05	1.6939e-05	1107	211.64	8.1436e-06	1.9734e-05	365.32	133.79	67.265	32.069	9.0273e-06	69.648	0.0030048	0.0030634	0.0008533	986.62	3.3242e-05	3.327e-05	1244.4	262.93	3.2641e-05	3.275e-05	451.11	168.68	90.874	41.315	3.2069e-05	80.102	-116.867	236.570	37.513	-109.025	216.890	211.871	-109.841	-103.796	-68.915	-6.665	-104.596	-99.327	-98.523	-93.517	100.956	-95.599	-8191	255	
886.538	1	1	0	0	0.16626	0.13331	0.38712	0.10639	0.26327	0.34941	0.17932	0.03296	0.33296	0.20866	0.179	0.21006	0.2483	0.18186	0.11791	0.036337	-2.1896	-2.8042	-2.5187	-2.9104	-2.7208	-2.3458	-3.0708	-2.7125	-2.6708	-3.1396	-2.5354	-2.9271	-3.0146	-2.3937	-2.9625	-2.8458	103.533	64.861	122.916	28.563	55.711	180.739	104.179	-8.730	-100.080	163.074	-102.029	235.242	-106.776	18.084	-22.476	196.108	0.0020748	0.0018915	0.00035534	835.02	9.8697e-06	2.4741e-05	1099.6	212.26	2.9187e-05	1.1001e-05	367.1	135.19	67.341	32.249	1.4476e-05	70.414	0.0028754	0.0029185	0.00080591	973.71	3.1603e-05	3.175e-05	1226.4	261.05	3.1521e-05	3.1802e-05	448.4	167.8	90.746	41.177	3.1651e-05	80.129	28.111	-79.110	-44.291	-109.093	68.456	23.557	-109.283	-104.233	101.592	57.333	-103.709	-99.151	-98.206	-93.545	-40.612	-94.861	-8191	255	
886.657	1	1	0	0	0.027021	0.10452	0.10615	0.25862	0.31898	0.1128	0.27097	0.041869	0.44377	0.070279	0.40888	0.18813	0.15079	0.15857	0.1514	0.1966	-2.3021	-2.9479	-2.6229	-2.8333	-2.7854	-2.475	-2.9229	-2.65	-2.3479	-2.9562	-2.5375	-2.6521	-3.0563	-2.6167	-2.5938	-2.8375	155.560	103.086	-114.189	221.439	108.098	17.161	171.319	-6.373	220.995	-100.183	219.412	132.249	-68.376	175.216	134.902	217.417	0.0010068	0.0019739	0.00027436	837.78	1.2207e-05	1.5098e-05	1100.4	211	1.3076e-05	1.0612e-05	362.28	134.21	67.271	31.563	2.3569e-05	68.34	0.002824	0.002871	0.00079606	972.48	3.087e-05	3.0773e-05	1220	256.77	3.0068e-05	3.0164e-05	439.73	163.97	88.37	39.845	2.9508e-05	77.333	43.446	-66.187	36.156	-109.585	109.520	29.517	-109.663	-103.722	16.492	87.408	-103.915	-98.948	-98.546	-93.438	100.736	-95.579	-8191	255	
886.729	1	1	0	0	0.18095	0.064895	0.098267	0.18169	0.074154	0.29331	0.21512	0.10402	0.24667	0.12269	0.19238	0.16267	0.1611	0.15534	0.10226	0.14187	-2.0625	-2.8854	-2.7396	-2.7125	-2.8458	-2.5958	-2.9521	-2.8208	-2.5833	-2.8125	-2.7792	-2.6063	-3.0708	-2.6333	-2.8479	-3.0854	164.806	220.288	110.431	187.767	213.122	29.812	167.155	60.302	-121.087	236.138	148.406	183.881	184.039	-23.039	-93.558	178.117	0.0013926	0.001049	0.00051751	845.59	2.4978e-06	6.2927e-06	1108.8	212.08	1.0549e-05	1.188e-05	360.19	131.63	65.45	30.366	2.0606e-06	67.176	0.0026448	0.0026889	0.00075069	967.15	2.9271e-05	2.9379e-05	1220.2	252.85	2.8989e-05	2.89e-05	433.33	160.15	86.195	38.503	2.8486e-05	75.808	13.637	-2.454	-46.458	-109.925	9.635	68.238	-109.728	-104.088	219.899	235.361	-104.225	-99.154	-98.884	-93.623	0.846	-95.258	-8191	255	
886.825	1	1	0	0	0.22975	0.098186	0.094109	0.13196	0.21053	0.18017	0.19228	0.14967	0.18081	0.20226	0.23771	0.11665	0.11016	0.24334	0.14126	0.14435	-2.0104	-2.9417	-2.5125	-2.7542	-2.9	-2.6	-2.8896	-2.9188	-2.2667	-2.7979	-2.7854	-2.5312	-2.7604	-2.4188	-2.9354	-2.8792	-59.896	-10.908	-36.651	219.634	77.848	171.510	111.493	174.798	173.826	55.818	197.272	23.621	172.272	226.417	-109.355	163.076	0.002121	0.0012943	0.00078028	853.94	1.6199e-05	1.7431e-05	1126.1	212.17	2.6125e-05	5.8983e-06	366.17	135.43	67.197	31.475	2.0235e-05	69.287	0.0025467	0.002608	0.00072272	968.28	2.8436e-05	2.8425e-05	1223	252.09	2.8337e-05	2.8495e-05	435.02	162.26	86.973	39.263	2.8035e-05	77.448	32.666	161.803	5.274	-109.422	-56.542	29.547	-109.634	-104.092	-109.626	-57.677	-104.225	-98.698	-98.116	-93.416	70.347	-94.918	-8191	255	
886.921	1	1	0	0	0.1501	0.1452	0.28318	0.23521	0.089842	0.18403	0.092185	0.066112	0.2196	0.13555	0.15891	0.095222	0.12438	0.19866	0.14744	0.035817	-1.925	-2.8563	-2.6854	-2.5417	-2.9813	-2.7062	-2.8979	-2.9042	-2.5	-2.9896	-2.7833	-2.6979	-2.95	-2.6833	-2.5771	-3.0563	181.424	131.243	-56.714	191.573	211.712	-25.330	-109.904	-68.347	-22.145	-39.621	225.973	222.696	36.469	157.051	123.326	-92.013	0.00088501	0.00055427	9.5843e-05	862.74	1.892e-05	9.6552e-06	1127.4	213.37	1.3782e-05	1.0788e-05	371.89	137.04	69.044	32.329	1.3261e-05	70.21	0.0025089	0.0025379	0.00070779	970.01	2.7715e-05	2.7929e-05	1221.5	252.75	2.7627e-05	2.777e-05	437.19	163.29	87.954	39.618	2.7482e-05	77.646	90.363	160.461	-5.888	-109.372	-48.384	223.370	-110.251	-104.803	48.870	66.206	-104.812	-99.586	-99.150	-93.799	-102.492	-95.694	-8191	255	
887.042	1	1	0	0	0.091124	0.17414	0.1901	0.21759	0.11314	0.32651	0.23226	0.1503	0.19351	0.13832	0.19796	0.42437	0.19179	0.14214	0.21153	0.14388	-2.0521	-2.7271	-2.8229	-2.5458	-2.9333	-2.6813	-2.8833	-3.1104	-2.6562	-2.9083	-2.8479	-2.4292	-2.9792	-2.7188	-2.5479	-3.0083	144.904	-14.757	-107.882	170.347	49.745	34.789	158.305	212.048	146.092	18.654	-73.933	201.131	176.666	147.497	117.604	213.957	0.0013816	0.00082211	0.00027207	867.95	3.6795e-06	9.7055e-06	1125.8	212.5	2.4545e-05	1.3785e-05	367.19	133.57	67.015	31.246	5.8373e-06	67.635	0.0024741	0.0025183	0.00069578	968.56	2.7243e-05	2.7291e-05	1216	250.24	2.6802e-05	2.6821e-05	429.1	159.37	85.728	38.343	2.6924e-05	75.3	38.297	-78.734	-25.178	-109.603	-107.864	165.678	-109.922	-104.043	5.588	92.200	-104.469	-99.190	-98.653	-93.292	-110.254	-95.148	-8191	255	
887.138	1	1	0	0	0.074885	0.081048	0.20877	0.27038	0.084326	0.14461	0.047872	0.30844	0.19294	0.30661	0.066563	0.14462	0.0402	0.37171	0.049661	0.28418	-2.1312	-2.725	-2.725	-2.4562	-3.0146	-2.7083	-2.8167	-3.0938	-2.7708	-2.6646	-3.0104	-2.5417	-3.0458	-2.725	-2.4375	-2.8521	-97.968	111.704	-39.486	-99.284	-26.959	194.708	156.978	181.760	79.352	-61.779	137.149	-60.128	-35.060	-72.761	-97.627	176.175	0.0020498	0.0021734	0.00014396	859.19	1.5754e-05	2.4646e-05	1122.3	212.97	3.5618e-05	1.1402e-05	365.69	132.78	66.655	30.599	1.4995e-05	66.797	0.002435	0.0024695	0.000689	966.15	2.709e-05	2.7299e-05	1218.3	250.51	2.7329e-05	2.7472e-05	430.07	158.78	85.885	38.223	2.7628e-05	74.939	49.343	-53.663	71.614	-109.937	221.054	97.244	-109.657	-104.943	7.211	-81.169	-104.719	-99.200	-98.372	-92.926	-92.253	-95.168	-8191	255	
887.234	1	1	0	0	0.064611	0.2227	0.1633	0.058465	0.24413	0.15242	0.083995	0.092634	0.17761	0.14119	0.272	0.024575	0.2285	0.28665	0.1163	0.14543	-2.1854	-2.5438	-2.8104	-2.5021	-2.85	-2.6958	-2.4396	-3.0104	-2.6688	-2.6833	-2.8396	-2.6396	-2.8042	-2.7542	-2.4	-3.0875	1.651	-74.866	236.085	189.277	60.783	202.975	-48.423	-76.993	99.614	202.078	232.110	207.736	-97.741	152.301	30.971	88.415	0.0030592	0.0016021	0.00012973	862.78	1.0244e-05	1.0196e-05	1128.9	210.43	2.56e-05	5.7915e-06	365.05	130.96	65.734	30.163	2.0436e-05	66.448	0.0024864	0.0025332	0.00070453	972.59	2.757e-05	2.7637e-05	1226.8	250.56	2.7421e-05	2.7424e-05	429.52	157.66	85.185	37.647	2.7388e-05	74.324	52.805	-111.213	33.168	-110.166	223.019	135.283	-110.084	-104.644	-26.943	40.430	-104.475	-99.401	-98.570	-93.817	62.464	-95.633	-8191	255	
887.306	1	1	0	0	0.074342	0.097309	0.070766	0.22705	0.27687	0.29383	0.26107	0.23162	0.30925	0.07693	0.20094	0.12414	0.083064	0.08276	0.23922	0.19191	-2.2417	-2.5521	-2.75	-2.5604	-2.6125	-2.7229	-2.4646	-3.0625	-2.6792	-2.6646	-3.0271	-2.575	-2.8146	-2.7125	-2.5521	-2.9625	180.114	42.496	3.858	204.102	183.800	-70.372	171.398	135.924	81.053	-113.047	193.489	192.887	139.233	227.138	179.545	102.150	0.001584	0.0014677	0.00055915	874.15	2.1596e-05	1.0877e-05	1139.1	210.63	1.5925e-05	1.2824e-05	364.67	132.84	65.785	30.14	2.3994e-06	66.374	0.0024493	0.0024853	0.00069113	973.72	2.7158e-05	2.7275e-05	1228.9	250.21	2.7043e-05	2.7309e-05	429.91	158.57	85.137	37.672	2.7031e-05	74.368	87.874	-74.999	76.495	-110.468	37.535	45.836	-110.068	-104.751	-118.567	9.515	-104.750	-99.635	-99.172	-93.607	137.199	-95.227	-8191	255	
887.426	1	1	0	0	0.20448	0.20297	0.19163	0.24596	0.21378	0.063269	0.26882	0.22967	0.081645	0.23239	0.14719	0.02835	0.1522	0.099275	0.20235	0.12571	-2.1896	-2.4292	-3.0542	-2.5542	-2.6625	-2.8917	-2.5583	-2.9437	-2.6021	-2.5458	-3.0875	-2.6583	-2.8667	-3.0396	-2.3354	-2.7812	-96.060	73.423	186.252	146.272	63.735	36.914	172.605	-119.908	-28.454	39.975	84.221	1.225	-105.168	-84.541	131.032	198.723	0.0022361	0.00034671	0.00018817	871.04	6.2543e-06	1.8152e-05	1137.1	212.03	2.3757e-05	1.606e-05	365.51	132.29	66.716	30.727	1.3556e-05	67.051	0.0024167	0.0024438	0.00068088	973.15	2.6582e-05	2.6673e-05	1224.6	249.79	2.6612e-05	2.688e-05	428.82	157.94	85.52	37.958	2.6736e-05	74.68	29.867	-8.204	45.956	-110.163	33.369	52.025	-110.344	-104.180	-66.191	46.387	-104.569	-99.154	-98.458	-93.570	-22.822	-95.181	-8191	255	
887.523	1	1	0	0	0.14542	0.27344	0.26542	0.14924	0.22796	0.069672	0.25721	0.10925	0.18354	0.36351	0.10409	0.015787	0.20787	0.11583	0.22041	0.050327	-2.2396	-2.2896	-2.7979	-2.5521	-2.6375	-2.7979	-2.6896	-2.8042	-2.7562	-2.3875	-3.0917	-2.625	-2.5646	-2.9375	-2.4354	-2.9729	-76.335	1.000	-92.286	88.145	219.285	128.260	229.493	-36.100	227.480	118.123	164.653	131.216	-7.195	192.006	-103.558	198.004	0.00072093	0.0021993	0.00054552	868.44	3.2747e-05	9.3894e-06	1125.9	213.09	1.5875e-05	6.0518e-06	365.57	132.21	66.493	30.423	1.736e-05	66.351	0.0024216	0.0024575	0.00067867	968.79	2.6649e-05	2.6712e-05	1214.8	249.37	2.6589e-05	2.6523e-05	427.27	157.57	84.974	37.672	2.671e-05	74.029	65.201	15.123	161.763	-109.656	-26.529	-53.200	-110.025	-103.833	-113.915	184.285	-104.045	-99.009	-98.554	-93.702	-56.703	-94.992	-8191	255	
887.619	1	1	0	0	0.17016	0.19013	0.16991	0.35909	0.19213	0.14687	0.29462	0.22883	0.30482	0.07875	0.24504	0.18468	0.095223	0.021571	0.18134	0.17774	-2.3438	-2.4417	-2.8021	-2.8854	-2.6479	-2.9	-2.7667	-2.9854	-2.7542	-2.3833	-2.8729	-2.5312	-2.4146	-2.8792	-2.5312	-2.75	106.821	45.828	81.482	180.873	71.851	226.556	148.834	175.460	-109.399	215.853	148.763	208.030	65.585	53.838	106.619	85.054	0.00093573	0.00072109	0.00028874	867.72	1.5183e-05	4.6798e-06	1135.4	210.79	1.9021e-05	6.7573e-06	363.77	129.97	65.563	29.711	1.5423e-05	64.928	0.0023841	0.0024249	0.00067153	964.87	2.6219e-05	2.6244e-05	1214.5	247.13	2.5665e-05	2.5891e-05	421.12	153.9	83.25	36.658	2.5499e-05	71.931	37.359	124.667	3.461	-109.883	25.145	219.410	-110.526	-104.803	-47.316	209.589	-104.967	-99.476	-99.204	-93.517	-69.751	-95.193	-8191	255	
887.738	1	1	0	0	0.09299	0.10816	0.062461	0.23658	0.022852	0.33259	0.26415	0.10631	0.16369	0.29501	0.13028	0.11619	0.1595	0.25257	0.11687	0.24478	-2.3917	-2.3458	-2.8104	-2.8667	-2.5208	-3.0187	-2.5729	-2.5542	-2.8312	-2.3479	-2.7833	-2.7625	-2.4708	-2.8854	-2.3896	-3.0062	-9.156	-23.464	-34.060	202.528	42.060	162.673	216.070	33.297	-106.793	21.250	155.967	158.934	198.571	147.281	47.316	100.596	0.0025069	0.0003597	0.00043743	873.99	4.4863e-06	1.7869e-05	1141.8	211.99	2.3086e-05	1.8145e-05	363.15	129.9	65.499	29.653	1.5635e-05	64.615	0.0022952	0.0023238	0.00065186	965.79	2.5431e-05	2.5514e-05	1217.1	247.15	2.5373e-05	2.5383e-05	420.59	153.19	82.794	36.369	2.5381e-05	71.878	69.036	-93.133	-41.059	-109.807	-94.403	166.027	-109.493	-104.362	234.907	-10.630	-103.917	-99.084	-98.195	-93.081	5.922	-94.795	-8191	255	
887.834	1	1	0	0	0.064819	0.019702	0.17025	0.22652	0.40443	0.067454	0.28019	0.086521	0.14806	0.20965	0.27868	0.20556	0.11716	0.13914	0.09828	0.18223	-2.4208	-2.3812	-2.8	-2.9562	-2.4417	-2.9646	-2.7333	-2.6562	-2.9417	-2.4854	-3.0125	-2.8854	-2.6271	-2.8812	-2.6188	-2.5479	106.661	229.290	-73.992	-121.228	-103.973	40.313	188.880	71.621	6.751	138.690	138.463	-105.295	-70.500	153.408	27.673	174.156	0.00073144	0.0018825	0.00011284	881.04	6.8829e-06	1.9739e-05	1147.1	212.83	2.7432e-05	7.2373e-06	363.56	130.21	65.136	29.533	7.3699e-06	64.739	0.0022939	0.0023246	0.00065185	970.32	2.5597e-05	2.5721e-05	1226.6	248.5	2.5957e-05	2.6318e-05	426.41	155.48	84.113	36.972	2.7311e-05	72.906	69.890	-25.873	-21.581	-109.863	56.758	26.839	-110.325	-104.776	135.574	73.376	-104.531	-99.224	-98.611	-93.588	165.526	-95.038	-8191	255	
887.907	1	1	0	0	0.1993	0.30612	0.023373	0.08173	0.13916	0.15985	0.09117	0.33953	0.12943	0.30381	0.10391	0.22374	0.2984	0.062082	0.45098	0.2978	-2.4146	-2.3625	-2.6896	-2.7875	-2.3083	-2.7042	-2.7583	-2.6042	-2.8438	-2.5479	-2.8083	-2.925	-2.5771	-2.9417	-2.6125	-2.5187	-89.249	151.742	-81.374	107.096	25.353	63.492	138.111	-107.952	35.294	-57.458	-13.388	-19.582	214.993	228.959	177.499	143.775	0.0011873	0.00056746	0.00033094	875.53	2.0518e-05	9.4997e-06	1146.1	211.99	2.0848e-05	1.4456e-05	364.41	132.83	66.484	30.403	7.0779e-06	67.137	0.002486	0.0025358	0.00070577	985.98	2.8054e-05	2.8501e-05	1242.1	253.53	2.8625e-05	2.8999e-05	436.14	161.28	87.323	38.547	2.9317e-05	76.006	66.497	163.103	-77.249	-110.025	-58.691	195.716	-110.391	-104.375	-110.606	-18.297	-104.714	-99.181	-98.574	-93.847	-42.793	-95.464	-8191	255	
888.026	1	1	0	0	0.16223	0.24714	0.10111	0.17383	0.11758	0.16782	0.29844	0.21448	0.28297	0.12128	0.18463	0.066449	0.16091	0.23492	0.16543	0.19536	-2.5938	-2.5104	-2.6937	-2.9208	-2.6063	-2.9958	-2.85	-2.7229	-2.85	-2.4375	-2.7958	-2.875	-2.4042	-2.7771	-2.6542	-2.6396	16.543	202.660	-122.120	213.488	-19.665	87.649	174.143	115.560	-115.611	184.529	-11.761	69.259	-75.913	215.829	-4.533	216.680	0.00094901	0.0029565	0.00039386	878.68	1.6015e-05	9.265e-06	1138.7	213.08	3.3771e-05	5.628e-06	367.82	135.39	68.01	31.362	6.2806e-06	68.59	0.0026489	0.0027032	0.00075696	999.92	2.9874e-05	3.0092e-05	1254.3	258.34	3.02e-05	3.0295e-05	445.4	165.88	89.742	39.828	3.0233e-05	77.876	78.736	-106.022	-113.375	-109.898	-39.933	-107.070	-110.175	-104.496	-42.832	167.891	-104.551	-99.606	-98.504	-93.758	-105.639	-95.407	-8191	255	
888.122	1	1	0	0	0.021935	0.17084	0.18438	0.086182	0.12639	0.08978	0.1056	0.034766	0.15019	0.19155	0.32233	0.22042	0.056734	0.29177	0.1516	0.17803	-2.4146	-2.6542	-2.4604	-2.9521	-2.5417	-2.7188	-2.7667	-2.4	-2.7375	-2.6146	-2.6854	-2.9938	-2.4771	-2.7188	-2.7146	-2.4688	229.391	185.740	-21.591	192.593	12.176	2.052	-54.450	219.617	-55.499	89.331	-87.214	73.240	-110.998	117.247	-1.273	-122.234	0.0015474	0.0014312	0.00046545	879.45	1.3903e-05	7.1982e-06	1145.5	214.12	1.0402e-05	7.6922e-06	370.01	136.24	67.62	31.489	8.8987e-06	68.222	0.0026947	0.002743	0.00076072	997.58	2.9568e-05	2.9864e-05	1251.3	258.08	2.9689e-05	2.9996e-05	446.46	166.34	89.789	40.084	3.0497e-05	78.321	72.785	54.286	104.025	-109.949	225.716	103.368	-109.962	-104.425	209.705	-89.920	-104.375	-99.220	-98.866	-93.530	72.077	-95.199	-8191	255	
888.218	1	1	0	0	0.021956	0.25989	0.26618	0.10189	0.24295	0.061421	0.18724	0.026939	0.15662	0.15788	0.09389	0.12711	0.033642	0.08494	0.19333	0.41331	-2.3667	-2.7229	-2.4667	-3.0542	-2.5083	-2.85	-3.0708	-2.4938	-2.7042	-2.5687	-2.6646	-2.9125	-2.5938	-2.6917	-2.8458	-2.5021	36.053	-118.766	-48.514	125.434	-22.824	-1.189	174.072	160.974	33.351	213.720	161.307	81.057	26.229	195.045	120.109	172.291	0.00099794	0.00079124	0.00018591	872.46	1.0643e-05	1.7844e-05	1147.6	216.19	3.9008e-05	1.2715e-05	372.17	136.55	67.77	31.444	5.6993e-06	68.757	0.0027669	0.0028128	0.00078472	1002.5	3.0725e-05	3.1157e-05	1259.9	261.08	3.101e-05	3.1004e-05	451.3	167.83	90.929	40.316	3.1292e-05	78.802	67.221	50.155	-88.185	-109.473	-5.597	96.599	-109.895	-104.196	-36.082	19.852	-104.898	-99.514	-99.026	-93.726	183.506	-95.477	-8191	255	
888.339	1	1	0	0	0.11251	0.16555	0.10145	0.045763	0.11269	0.10319	0.054124	0.062181	0.11202	0.20352	0.17107	0.15893	0.082002	0.058755	0.103	0.24025	-2.3458	-2.5187	-2.4146	-3.0083	-2.6271	-2.5979	-2.9625	-2.5438	-2.7979	-2.7833	-2.5729	-3.0021	-2.6063	-2.5146	-2.8	-2.5854	52.323	-38.955	-96.570	215.662	-92.459	-19.957	123.296	141.007	193.867	-118.769	176.201	-74.432	57.096	4.878	-26.510	200.049	0.001354	0.00058672	0.00022755	877.87	2.112e-05	3.2266e-06	1140.7	214.03	2.3951e-05	1.7232e-05	373.49	135.83	68.324	31.524	8.6701e-06	67.734	0.0028169	0.0028782	0.00079795	1006.8	3.1267e-05	3.1343e-05	1263.1	262.15	3.1198e-05	3.1282e-05	450.86	167.24	90.563	40.161	3.1017e-05	77.821	134.600	97.023	-93.868	-110.107	146.821	19.692	-109.872	-104.453	-10.091	158.495	-104.210	-99.067	-98.786	-93.582	34.938	-95.368	-8191	255	
888.435	1	1	0	0	0.28913	0.24844	0.051169	0.21046	0.13739	0.22645	0.050068	0.12468	0.05436	0.05515	0.088474	0.021705	0.2936	0.11542	0.24432	0.1719	-2.2771	-2.8708	-2.3521	-2.8667	-2.6042	-2.6875	-3.0104	-2.6125	-2.7208	-2.7729	-2.4979	-2.9771	-2.7583	-2.4521	-2.8438	-2.4979	158.364	178.591	-13.338	150.393	66.452	-100.193	201.871	54.944	96.002	155.319	106.533	-68.797	225.665	-65.095	62.251	172.279	0.001073	0.000329	0.00046529	879.33	1.4695e-05	1.1841e-05	1141.1	213.45	2.39e-05	1.7013e-05	371.14	136.09	68.22	31.297	1.6333e-05	67.972	0.0027852	0.002831	0.00079052	1008.3	3.1033e-05	3.1128e-05	1262.1	261.86	3.0973e-05	3.1234e-05	451.26	167.29	90.779	40.251	3.1045e-05	78.072	81.002	-121.005	-43.180	-109.878	71.416	149.811	-109.968	-104.612	-86.414	66.414	-104.383	-99.167	-98.689	-93.843	-14.667	-95.609	-8191	255	
888.530	1	1	0	0	0.18573	0.24438	0.052784	0.13492	0.15254	0.14759	0.16588	0.29163	0.27618	0.063752	0.19151	0.07026	0.097128	0.22423	0.14466	0.22392	-2.4479	-2.9854	-2.4083	-2.7833	-2.6958	-2.4146	-3.2271	-2.4479	-2.8354	-2.725	-2.5354	-3.0792	-2.8312	-2.6854	-2.8604	-2.6896	140.876	198.939	137.513	-45.654	173.119	35.754	184.073	179.122	8.065	-97.718	192.191	171.558	-78.557	-58.213	7.949	116.379	0.0019523	0.0013903	6.668e-05	877.1	1.8365e-05	1.1274e-05	1140.9	216.7	1.2526e-05	1.0355e-05	370.62	135.86	67.108	31.082	2.464e-06	67.914	0.0028052	0.0028429	0.00078797	1005.9	3.0902e-05	3.1037e-05	1259.7	261.43	3.0587e-05	3.0608e-05	448.05	165.63	89.679	39.691	2.9847e-05	77.159	-1.447	-65.617	188.443	-110.199	202.989	76.463	-110.309	-104.499	-46.339	-85.804	-104.933	-99.539	-98.405	-93.499	66.269	-95.041	-8191	255	
888.603	1	1	0	0	0.21492	0.11284	0.04571	0.13776	0.12034	0.21086	0.071606	0.23963	0.14242	0.2018	0.033988	0.13651	0.33416	0.18518	0.24906	0.085741	-2.1083	-2.7062	-2.5687	-2.8792	-2.7125	-2.5938	-3.0333	-2.7	-2.6042	-2.7479	-2.4437	-2.8375	-2.75	-2.5792	-2.9667	-2.6458	-79.808	-35.951	144.479	-103.172	133.156	2.514	-16.077	161.672	-53.702	103.383	214.529	130.470	-53.465	-102.988	-32.962	-11.788	0.0013321	0.00064916	0.00022427	876.4	1.4581e-05	2.1764e-05	1145.7	216.35	4.7301e-06	1.4951e-05	368.12	134.01	67.579	31.11	1.0436e-05	68.041	0.0026662	0.0026968	0.00074932	997.11	2.9269e-05	2.9424e-05	1251.5	258.89	2.9267e-05	2.9348e-05	442.14	163.8	88.529	39.314	2.9239e-05	76.919	18.855	101.910	101.186	-109.541	205.036	152.882	-109.708	-104.179	218.145	14.459	-104.601	-99.807	-99.060	-93.749	86.438	-95.603	-8191	255	
888.722	1	1	0	0	0.29704	0.026292	0.10666	0.29965	0.084234	0.14345	0.11902	0.45724	0.55059	0.077284	0.14358	0.12735	0.12642	0.056768	0.15003	0.18895	-2.225	-2.8479	-2.4625	-2.6833	-2.7729	-2.4833	-2.9562	-2.4562	-2.6333	-2.9479	-2.4313	-2.7542	-2.9062	-2.4854	-2.9604	-2.7521	77.283	191.700	94.613	189.855	90.089	146.791	-35.881	216.071	93.649	-27.866	-59.472	172.809	-83.990	189.932	-58.884	-28.234	0.0017292	0.001124	0.00035532	872.18	3.2523e-05	9.5843e-06	1148.6	215.09	2.3876e-05	1.9311e-05	374.56	135.59	68.083	31.62	4.47e-06	68.983	0.0026409	0.0026985	0.0007542	997.79	2.9655e-05	2.9697e-05	1256.7	259.14	2.9642e-05	2.9673e-05	446.12	165.74	89.302	39.722	2.9574e-05	77.791	20.397	120.100	117.284	-109.623	20.503	-26.242	-109.813	-104.610	-27.315	122.619	-104.158	-99.368	-98.728	-93.080	20.017	-95.166	-8191	255	
888.818	1	1	0	0	0.16315	0.029852	0.16094	0.13752	0.40137	0.10723	0.24963	0.13826	0.17067	0.026182	0.15602	0.11117	0.15289	0.17222	0.18441	0.16626	-2.0417	-2.8583	-2.6312	-2.9583	-2.8521	-2.3604	-2.95	-2.9354	-2.4938	-3.1083	-2.6437	-2.8021	-2.8667	-2.5062	-2.8083	-2.8375	-112.796	7.864	71.242	120.388	35.178	-62.021	177.654	131.950	9.663	-17.316	141.091	-78.700	123.734	150.632	-43.116	151.167	0.001417	0.00049331	0.00054024	874.71	1.162e-05	7.4839e-06	1143.7	216.17	1.9476e-05	1.1154e-05	371.5	136.17	68.75	31.169	3.9248e-06	67.638	0.0026893	0.0027347	0.00076374	1001.5	3.0064e-05	3.0102e-05	1256	259.95	2.9916e-05	2.971e-05	443.96	164.74	88.943	39.303	2.8883e-05	76.49	21.834	60.533	-15.918	-109.653	162.904	29.365	-109.578	-103.776	63.579	-48.341	-103.497	-98.770	-98.271	-93.546	31.681	-95.158	-8191	255	
888.914	1	1	0	0	0.13043	0.13228	0.13415	0.14768	0.16404	0.082323	0.2133	0.21008	0.23775	0.12434	0.091275	0.28982	0.19008	0.03649	0.17665	0.47864	-1.9896	-2.8021	-2.6604	-2.7729	-2.9229	-2.2917	-2.8292	-2.9583	-2.4396	-2.8729	-2.6125	-2.7792	-2.7604	-2.4146	-2.6729	-2.9167	-3.069	-55.183	170.689	-110.202	-30.708	-117.934	227.711	158.892	146.045	85.875	-54.217	167.737	-73.193	-23.945	223.507	187.247	0.0010759	0.00096382	0.00048656	881.54	7.1012e-06	8.0023e-06	1145.3	214.49	1.6614e-05	1.1015e-05	368.63	134.7	67.705	30.887	1.4092e-05	67.327	0.0025894	0.0026294	0.00073292	997.27	2.896e-05	2.8983e-05	1250.5	257.61	2.9031e-05	2.9154e-05	440.77	163.04	87.806	38.772	2.8443e-05	75.918	-13.907	166.228	62.248	-109.966	-54.377	-43.354	-109.966	-104.283	208.655	89.293	-104.356	-99.226	-98.171	-93.538	-9.650	-95.211	-8191	255	
889.010	1	1	0	0	0.33135	0.22809	0.057828	0.26658	0.064371	0.068819	0.16303	0.27227	0.14613	0.097935	0.16235	0.35511	0.24369	0.21225	0.073121	0.20955	-2.075	-2.75	-2.6604	-2.7458	-3.0792	-2.5312	-2.8979	-2.9813	-2.6167	-2.8042	-2.7479	-2.6188	-3.0667	-2.4458	-2.6833	-2.9854	204.454	-109.115	-108.504	146.907	-28.270	109.256	180.355	173.435	217.328	215.638	139.291	-45.037	-22.875	106.816	-114.143	-105.648	0.0013675	0.0017415	0.0002345	877.81	7.4038e-06	1.996e-05	1156.5	215.9	2.392e-05	1.0368e-05	371.3	136.15	67.901	31.559	4.4606e-06	69.594	0.002526	0.0025731	0.00071707	993.28	2.826e-05	2.8503e-05	1252.3	257.65	2.879e-05	2.9127e-05	444.78	164.69	89.39	39.96	2.9904e-05	78.855	69.785	13.021	17.801	-110.039	127.850	-85.659	-109.791	-104.087	-0.624	45.984	-103.564	-98.709	-97.882	-93.812	57.454	-94.810	-8191	255	
889.106	1	1	0	0	0.05127	0.085285	0.1568	0.19994	0.034952	0.058172	0.051649	0.18445	0.016739	0.26485	0.21134	0.27633	0.26915	0.18742	0.14452	0.17212	-2.125	-2.85	-2.6771	-2.7812	-2.8521	-2.4521	-2.9021	-3.0083	-2.3563	-2.7021	-2.8125	-2.5771	-3.1104	-2.5062	-2.6937	-2.8187	75.961	237.043	88.182	-109.504	2.963	75.149	-57.976	201.392	196.818	101.027	173.109	226.735	123.415	-121.686	-52.821	218.473	0.00080344	0.0018484	0.00054198	881.38	3.0843e-05	1.4295e-05	1155	219.46	1.8047e-05	2.3954e-05	379.93	141.03	69.885	32.977	1.8207e-05	72.299	0.0026966	0.0027543	0.00077266	1007.1	3.0635e-05	3.1122e-05	1271	266.77	3.1825e-05	3.2185e-05	462.82	173.86	93.567	42.27	3.2668e-05	82.838	-15.907	35.224	119.946	-109.872	20.892	171.279	-110.118	-104.809	113.457	-24.572	-104.838	-99.736	-98.731	-93.798	78.407	-95.413	-8191	255	
889.203	1	1	0	0	0.18418	0.25315	0.13911	0.13486	0.16252	0.10851	0.27785	0.067984	0.051496	0.17942	0.060794	0.22732	0.17025	0.25584	0.10198	0.21362	-1.9896	-3.0125	-2.6937	-2.4437	-2.95	-2.4896	-2.7958	-3.0083	-2.3708	-2.7188	-2.8646	-2.5583	-2.9792	-2.6646	-2.6125	-2.8312	156.688	-32.148	-103.176	184.442	-94.255	62.864	184.723	181.044	112.159	188.015	71.707	233.297	224.486	170.717	130.161	171.466	0.0014607	0.00074909	0.00031012	880.1	1.3624e-05	2.5757e-05	1145	217.69	4.5515e-05	1.2489e-05	376.4	138.45	69.583	32.457	2.7263e-05	71.2	0.002916	0.002961	0.00082581	1016.4	3.2373e-05	3.2644e-05	1273.5	268.18	3.254e-05	3.2787e-05	461.3	172.41	93.101	41.78	3.2324e-05	81.246	47.175	119.262	104.685	-110.141	-10.479	44.296	-110.252	-104.805	-112.747	63.147	-104.662	-99.501	-98.617	-93.532	223.628	-95.252	-8191	255	
889.299	1	1	0	0	0.057718	0.27556	0.10669	0.30427	0.26658	0.12407	0.21502	0.32612	0.15231	0.071713	0.13827	0.12865	0.14342	0.21904	0.16209	0.1475	-2.0229	-2.7062	-2.8104	-2.5771	-2.7604	-2.6083	-2.7854	-2.9979	-2.5896	-2.7104	-2.8667	-2.3792	-2.6937	-2.6458	-2.4354	-3.1417	-76.596	206.449	92.988	174.228	-64.713	213.682	163.169	128.909	64.278	63.175	134.618	82.372	227.551	-66.801	-115.358	154.553	0.0030151	0.00012124	0.00022991	878.23	1.4091e-05	1.1568e-05	1141.5	217.66	2.6969e-05	2.4769e-06	377.29	137.07	68.708	32.258	1.5874e-05	70.79	0.0028794	0.002928	0.00080801	1009	3.1675e-05	3.1945e-05	1266	265.4	3.1846e-05	3.1999e-05	457.06	170.14	91.919	41.384	3.1932e-05	80.765	63.090	102.198	149.749	-109.784	173.857	224.910	-110.173	-105.049	-67.650	3.620	-104.900	-99.982	-98.944	-93.855	131.012	-95.845	-8191	255	
889.419	1	1	0	0	0.15337	0.36979	0.20538	0.10102	0.16662	0.085193	0.19409	0.113	0.097944	0.061846	0.26505	0.094673	0.15408	0.25071	0.15522	0.082213	-2.0312	-2.7146	-2.6854	-2.5812	-2.8021	-2.8854	-2.6688	-3.1042	-2.375	-2.625	-2.9958	-2.6146	-2.8812	-2.9667	-2.5062	-2.875	194.950	-81.478	-40.780	171.467	58.099	-59.148	140.271	-37.732	38.308	-23.950	144.045	-70.708	-41.057	223.900	177.980	175.694	0.0022087	0.0014342	0.00025216	873.58	2.1481e-05	1.2008e-05	1140.6	215.9	2.0488e-05	5.6147e-06	374.26	136.96	68.339	32.105	1.8698e-05	69.962	0.0028669	0.0029063	0.00080931	1009.2	3.1658e-05	3.1752e-05	1263.7	264.24	3.1503e-05	3.1769e-05	455.72	169.6	91.539	41.05	3.1548e-05	80.344	41.833	-68.020	233.414	-110.115	235.094	143.963	-109.845	-104.632	4.176	-36.235	-104.763	-99.572	-98.591	-93.861	22.600	-95.402	-8191	255	
889.516	1	1	0	0	0.36027	0.1448	0.25507	0.13561	0.14889	0.095556	0.11828	0.14967	0.33161	0.091376	0.14541	0.025921	0.11496	0.30484	0.24791	0.33485	-2.1271	-2.7167	-2.9792	-2.6833	-2.85	-2.5875	-2.6729	-2.9396	-2.5417	-2.6771	-3.0062	-2.5604	-2.8396	-2.8	-2.4021	-3.0375	-1.225	191.903	-56.128	112.829	149.006	-56.888	-110.204	211.039	191.972	27.132	94.837	-99.548	34.042	182.527	86.135	167.573	0.0014491	0.0026779	0.00018664	877.25	1.2554e-05	3.6055e-05	1146.1	217.7	1.818e-05	1.0284e-05	373.78	138.47	68.478	32.474	1.6439e-05	70.934	0.0028366	0.0028717	0.00080107	1008.5	3.149e-05	3.1958e-05	1267.8	264.61	3.1774e-05	3.2043e-05	457	171.44	92.337	41.594	3.2217e-05	81.493	52.842	-49.775	9.928	-110.155	227.778	18.253	-110.192	-104.615	-57.221	3.280	-104.440	-99.288	-98.351	-93.897	32.116	-95.567	-8191	255	
889.610	1	1	0	0	0.17196	0.047325	0.078905	0.086734	0.25215	0.2312	0.30751	0.17126	0.11362	0.14397	0.048811	0.12971	0.28657	0.20562	0.25393	0.2793	-2.1042	-2.5729	-2.9833	-2.6708	-2.6854	-2.9021	-2.5771	-2.775	-2.7333	-2.5771	-2.9833	-2.6042	-2.6437	-2.775	-2.4021	-2.95	-34.077	-113.283	0.394	140.463	222.409	8.680	203.016	151.220	20.733	-91.020	-26.805	-120.311	-101.822	165.121	175.854	106.775	0.0014326	0.0016082	0.00045364	880.58	1.0903e-05	1.2703e-05	1147	216.27	3.2768e-05	1.9036e-05	374.12	137.14	67.457	31.459	2.6409e-05	69.322	0.0029413	0.0029938	0.00083876	1020.2	3.2798e-05	3.2852e-05	1278.7	267.02	3.2796e-05	3.3004e-05	459.27	171.06	91.97	40.943	3.2541e-05	79.887	66.110	65.245	-56.996	-109.811	115.455	66.217	-110.238	-104.944	28.094	89.513	-104.382	-99.145	-99.150	-93.761	-60.645	-95.452	-8191	255	
889.708	1	1	0	0	0.089195	0.26952	0.138	0.26851	0.19399	0.15499	0.022599	0.086156	0.13382	0.18696	0.20711	0.12237	0.052923	0.090136	0.19992	0.27114	-2.4042	-2.475	-2.9167	-2.5563	-2.6396	-2.9125	-2.5646	-2.8333	-2.8875	-2.7271	-2.9208	-2.6354	-2.6146	-2.85	-2.4083	-3.0771	-53.349	-38.214	-85.650	-104.572	2.158	126.153	-13.792	49.983	64.037	62.285	194.295	226.267	166.353	0.891	21.616	144.454	0.0017224	0.00068486	0.00019659	883.96	2.5267e-05	1.7104e-05	1145.9	217.53	8.9081e-06	1.6316e-05	373.28	135.46	67.899	32.007	3.3961e-05	69.026	0.0029295	0.002963	0.00082658	1023	3.2565e-05	3.2909e-05	1278.3	267.07	3.3256e-05	3.3465e-05	460.93	171.09	92.762	41.33	3.3776e-05	80.659	66.756	214.216	29.674	-109.538	30.251	-60.222	-109.874	-104.458	46.045	48.151	-104.601	-99.633	-98.527	-93.423	-96.737	-95.190	-8191	255	
889.827	1	1	0	0	0.13938	0.013538	0.22624	0.42472	0.11154	0.21049	0.096313	0.42342	0.081856	0.17324	0.12045	0.10949	0.050754	0.093798	0.2091	0.063275	-2.1021	-2.4146	-2.9646	-2.8333	-2.6188	-2.9688	-2.6417	-2.7	-2.7375	-2.3708	-2.9938	-2.6312	-2.7479	-3.0375	-2.4021	-2.8896	60.035	22.984	199.599	191.279	89.379	161.388	230.481	133.139	115.153	118.535	216.814	114.637	-99.989	205.475	36.931	135.306	0.0016207	0.0010854	0.00073364	873.96	1.4607e-05	8.8832e-06	1143.4	217.32	1.4833e-05	1.6826e-05	377.07	139.67	69.426	32.495	1.2807e-05	71.216	0.0030498	0.0031094	0.00086797	1030.4	3.4385e-05	3.4804e-05	1290.6	272.72	3.5016e-05	3.541e-05	471.88	177.39	96.064	43.148	3.5514e-05	83.805	52.434	72.285	90.958	-109.796	226.777	106.717	-110.168	-104.579	48.817	138.826	-104.556	-99.747	-98.937	-93.952	87.105	-95.683	-8191	255	
889.898	1	1	0	0	0.31346	0.18561	0.14904	0.27582	0.15183	0.13983	0.069785	0.088087	0.12057	0.15396	0.25796	0.32383	0.060476	0.23542	0.07296	0.2523	-2.3292	-2.4167	-2.8771	-2.7833	-2.5	-3.0479	-2.6729	-2.725	-2.9313	-2.5792	-3.0021	-2.7583	-2.5375	-3.1063	-2.4333	-2.8229	23.243	172.866	52.278	125.801	172.157	221.561	93.650	218.417	78.484	-81.316	-108.510	193.774	216.926	-103.055	219.195	117.429	0.0016626	0.00089677	0.00020224	871.98	2.2024e-05	2.3747e-05	1135.2	217.82	2.406e-05	1.1905e-05	379.03	139.56	69.212	33.147	8.0659e-06	72.032	0.0031981	0.0032664	0.00090913	1033	3.5504e-05	3.5799e-05	1288.6	274.34	3.5859e-05	3.6051e-05	475.03	179.01	96.822	43.705	3.6308e-05	84.604	35.941	70.417	6.205	-109.758	-1.958	10.585	-110.005	-104.286	45.396	72.840	-104.260	-99.226	-98.590	-93.917	-110.658	-95.601	-8191	255	
890.019	1	1	0	0	0.30317	0.10344	0.062185	0.17881	0.1652	0.069345	0.20705	0.040216	0.13481	0.18778	0.15069	0.25235	0.19475	0.14932	0.121	0.12449	-2.4979	-2.4521	-2.7687	-2.7812	-2.5312	-2.9	-2.6312	-2.6937	-2.8979	-2.5104	-2.9417	-2.8688	-2.425	-3.0583	-2.6583	-2.7771	165.690	17.062	-42.080	231.398	202.313	-54.533	-53.249	-58.190	153.296	-102.992	-93.787	200.682	-81.957	-74.587	16.063	-90.582	0.0024586	0.0004805	9.3061e-05	863.44	5.8903e-06	1.2081e-05	1130.3	218.94	2.5171e-05	2.4403e-05	375.35	138.71	69.779	32.527	7.5527e-06	72.046	0.0032593	0.0033106	0.00092038	1030.2	3.6028e-05	3.6064e-05	1286.6	275.18	3.5915e-05	3.6006e-05	473.66	177.35	96.333	43.237	3.5971e-05	83.954	78.175	105.176	138.572	-109.697	153.450	177.362	-109.920	-104.269	-73.609	17.610	-104.663	-99.071	-98.638	-93.686	185.823	-95.063	-8191	255	
890.115	1	1	0	0	0.21271	0.082915	0.28816	0.23861	0.058712	0.28525	0.12453	0.087713	0.28614	0.4168	0.17965	0.31272	0.056007	0.27261	0.24494	0.10153	-2.3458	-2.3187	-2.6854	-2.8354	-2.6167	-3.0458	-2.7313	-2.5729	-2.9083	-2.5833	-2.7979	-2.7646	-2.3583	-2.9896	-2.7583	-2.6708	106.329	123.200	195.326	190.779	82.118	-18.919	202.712	-72.683	39.573	44.025	-107.999	164.039	-31.582	215.433	138.185	-89.638	0.000619	0.00069178	0.00042504	863.24	7.799e-06	2.765e-05	1133.5	217.06	2.0391e-05	1.1998e-05	376.29	137.67	69.605	32.435	2.6823e-05	70.394	0.003205	0.0032374	0.0009032	1023.2	3.518e-05	3.5369e-05	1280.4	272.03	3.4978e-05	3.4921e-05	468.55	174.55	94.616	42.421	3.4481e-05	82.025	90.569	-74.924	201.652	-109.529	-7.332	59.602	-109.990	-104.015	22.160	-48.679	-104.165	-98.980	-98.733	-93.534	44.615	-95.399	-8191	255	
890.211	1	1	0	0	0.14299	0.25711	0.13054	0.19137	0.045944	0.17598	0.29556	0.17676	0.05231	0.14087	0.12605	0.22934	0.14746	0.2338	0.048292	0.28953	-2.7292	-2.5021	-2.7625	-2.9375	-2.3396	-2.8563	-2.8563	-2.4542	-2.8583	-2.5438	-2.7458	-2.9896	-2.5563	-2.9208	-2.7812	-2.7375	-19.081	186.717	-42.921	39.164	194.815	146.232	208.112	178.000	-99.023	-118.064	-120.601	197.462	-91.908	236.940	4.508	185.250	0.0013289	0.00069031	0.00018377	862.24	9.1747e-06	2.3386e-05	1118.6	215.39	2.5106e-05	7.7943e-06	371.82	136.49	68.203	31.954	1.9593e-05	69.727	0.0030962	0.0031541	0.00087736	1017.8	3.4191e-05	3.451e-05	1267.9	269.25	3.4127e-05	3.4459e-05	462.49	173.27	93.483	41.895	3.3814e-05	81.221	63.545	-4.885	155.504	-109.627	-104.579	-32.193	-109.757	-104.207	-104.138	78.381	-104.282	-99.412	-98.232	-93.993	-58.530	-95.215	-8191	255	
890.307	1	1	0	0	0.086373	0.18724	0.14199	0.37046	0.25572	0.11747	0.14939	0.21367	0.19182	0.12255	0.28749	0.028028	0.1698	0.48582	0.50788	0.29285	-2.5042	-2.3646	-2.6479	-2.9125	-2.3937	-2.9104	-2.8229	-2.5	-2.7375	-2.6063	-2.6604	-2.8187	-2.5104	-2.8	-2.5958	-2.5958	-34.579	18.339	-54.950	155.891	224.542	-82.952	177.195	176.586	-49.286	-83.597	172.376	194.263	184.840	142.959	162.355	-91.122	0.0012688	0.0010376	0.00020866	869.98	1.2157e-05	3.3691e-05	1125.4	216.27	1.2684e-05	2.244e-06	370.34	137.63	68.873	32.183	8.2722e-06	71.01	0.0030038	0.003043	0.00084056	1012.1	3.2713e-05	3.2745e-05	1256.4	265.01	3.2244e-05	3.239e-05	454.74	170.79	91.785	41.405	3.2059e-05	81.175	64.003	225.451	108.555	-109.556	3.901	220.143	-109.982	-104.190	62.662	143.070	-103.727	-98.898	-98.358	-92.977	195.731	-95.088	-8191	255	
890.404	1	1	0	0	0.15131	0.23169	0.11269	0.35226	0.13373	0.11508	0.37073	0.070555	0.055396	0.14321	0.067504	0.22769	0.23631	0.059037	0.17648	0.14531	-2.5354	-2.6417	-2.5542	-2.9521	-2.4188	-2.7917	-2.9729	-2.4708	-2.8771	-2.8187	-2.6063	-2.8979	-2.5563	-2.7292	-2.8438	-2.3438	180.173	-93.910	224.736	194.159	24.394	60.952	169.238	-85.321	35.813	146.231	175.699	200.387	174.510	178.718	160.601	84.311	0.0023709	0.0016973	0.0004083	870.35	1.5944e-05	7.935e-06	1115.2	217.26	1.4832e-05	1.5567e-05	374.22	140.72	70.244	33.117	1.4284e-05	72.164	0.0028678	0.0029188	0.00080718	1003.7	3.1522e-05	3.1655e-05	1244.2	264.23	3.1372e-05	3.1554e-05	454.92	172.44	92.821	42.094	3.144e-05	82.171	67.106	129.332	92.907	-109.510	-49.645	113.670	-110.027	-104.721	43.411	-12.015	-103.901	-99.475	-99.047	-94.062	68.845	-95.934	-8191	255	
#DATA ENDS
