BOXY.EXE: ISS Imagent and Oximeter Data Acquisition Program Version 0.80
Ascii Record File

#ACQ INFORMATION
2  Detector Channels 
16  External MUX Channels 
1  Auxiliary Channels 
5000  Waveform (CCF) Frequency (Hz)
1  Waveforms Skipped 
30  Waveforms Averaged 
1  Cycles Averaged 
16  Acquisitions per Waveform 
10.0806  Updata Rate (Hz) 

#FILE INFORMATION
TRUE -- External MUX Channel results are PARSED.
FALSE -- AC DC and Phase are NOT grouped.
TRUE -- Companion Program Settings File CREATED.
FALSE -- AC data not excluded
FALSE -- DC data not excluded
FALSE -- Phase data not excluded
FALSE -- Auxillary Chn. data not excluded
Tab delimiters

#CALIBRATION STATE
TRUE -- Waveform Calibration Values APPLIED.


#AUX CALIBRATION VALUES
Val Type	aux-1	

Term	1.0000e+00	
Factor	0.0000e+00	


#WF CALIBRATION VALUES
A = Detector Channel
Val Type	A-AC1	A-AC2	A-AC3	A-AC4	A-AC5	A-AC6	A-AC7	A-AC8	A-AC9	A-AC10	A-AC11	A-AC12	A-AC13	A-AC14	A-AC15	A-AC16	A-DC1	A-DC2	A-DC3	A-DC4	A-DC5	A-DC6	A-DC7	A-DC8	A-DC9	A-DC10	A-DC11	A-DC12	A-DC13	A-DC14	A-DC15	A-DC16	A-Ph1	A-Ph2	A-Ph3	A-Ph4	A-Ph5	A-Ph6	A-Ph7	A-Ph8	A-Ph9	A-Ph10	A-Ph11	A-Ph12	A-Ph13	A-Ph14	A-Ph15	A-Ph16	

Term	0.00000e+00	0.00000e+00	0.00000e+00	0.00000e+00	0.00000e+00	0.00000e+00	0.00000e+00	0.00000e+00	0.00000e+00	0.00000e+00	0.00000e+00	0.00000e+00	0.00000e+00	0.00000e+00	0.00000e+00	0.00000e+00	0.00000e+00	0.00000e+00	0.00000e+00	0.00000e+00	0.00000e+00	0.00000e+00	0.00000e+00	0.00000e+00	0.00000e+00	0.00000e+00	0.00000e+00	0.00000e+00	0.00000e+00	0.00000e+00	0.00000e+00	0.00000e+00	0.00000e+00	0.00000e+00	0.00000e+00	0.00000e+00	0.00000e+00	0.00000e+00	0.00000e+00	0.00000e+00	0.00000e+00	0.00000e+00	0.00000e+00	0.00000e+00	0.00000e+00	0.00000e+00	0.00000e+00	0.00000e+00	
Factor	1.00000e+00	1.00000e+00	1.00000e+00	1.00000e+00	1.00000e+00	1.00000e+00	1.00000e+00	1.00000e+00	1.00000e+00	1.00000e+00	1.00000e+00	1.00000e+00	1.00000e+00	1.00000e+00	1.00000e+00	1.00000e+00	1.00000e+00	1.00000e+00	1.00000e+00	1.00000e+00	1.00000e+00	1.00000e+00	1.00000e+00	1.00000e+00	1.00000e+00	1.00000e+00	1.00000e+00	1.00000e+00	1.00000e+00	1.00000e+00	1.00000e+00	1.00000e+00	X	X	X	X	X	X	X	X	X	X	X	X	X	X	X	X	

B = Detector Channel
Val Type	B-AC1	B-AC2	B-AC3	B-AC4	B-AC5	B-AC6	B-AC7	B-AC8	B-AC9	B-AC10	B-AC11	B-AC12	B-AC13	B-AC14	B-AC15	B-AC16	B-DC1	B-DC2	B-DC3	B-DC4	B-DC5	B-DC6	B-DC7	B-DC8	B-DC9	B-DC10	B-DC11	B-DC12	B-DC13	B-DC14	B-DC15	B-DC16	B-Ph1	B-Ph2	B-Ph3	B-Ph4	B-Ph5	B-Ph6	B-Ph7	B-Ph8	B-Ph9	B-Ph10	B-Ph11	B-Ph12	B-Ph13	B-Ph14	B-Ph15	B-Ph16	

Term	0.00000e+00	0.00000e+00	0.00000e+00	0.00000e+00	0.00000e+00	0.00000e+00	0.00000e+00	0.00000e+00	0.00000e+00	0.00000e+00	0.00000e+00	0.00000e+00	0.00000e+00	0.00000e+00	0.00000e+00	0.00000e+00	0.00000e+00	0.00000e+00	0.00000e+00	0.00000e+00	0.00000e+00	0.00000e+00	0.00000e+00	0.00000e+00	0.00000e+00	0.00000e+00	0.00000e+00	0.00000e+00	0.00000e+00	0.00000e+00	0.00000e+00	0.00000e+00	7.91608e+01	-1.57426e+02	-1.25790e+02	-1.81071e+02	-1.33254e+02	-4.33174e+01	-1.58384e+02	-1.62015e+02	-9.85754e+01	-5.35677e+01	-1.74335e+02	-1.74194e+02	-1.80052e+02	-1.76373e+02	-8.84111e+01	-1.49596e+02	
Factor	7.28416e-05	1.18705e-04	3.43277e-05	1.55421e-01	1.40958e-06	1.37877e-06	1.77198e-01	4.90421e-02	1.73132e-06	1.35496e-06	9.21222e-02	3.70337e-02	2.12366e-02	8.91378e-03	1.18770e-06	1.32070e-02	1.01932e-06	1.04090e-06	2.89617e-07	7.87538e-02	1.13864e-08	1.14252e-08	8.37802e-02	2.48126e-02	1.13964e-08	1.14369e-08	4.41850e-02	1.75058e-02	1.07770e-02	4.46422e-03	1.14014e-08	6.34155e-03	X	X	X	X	X	X	X	X	X	X	X	X	X	X	X	X	



#DISTANCE SETTINGS
A = Detector Channel
A-1	A-2	A-3	A-4	A-5	A-6	A-7	A-8	A-9	A-10	A-11	A-12	A-13	A-14	A-15	A-16	

2.5000e+00	3.0000e+00	2.5000e+00	3.0000e+00	2.0000e+00	3.0000e+00	1.5000e+00	3.0000e+00	3.0000e+00	3.0000e+00	3.0000e+00	3.0000e+00	3.0000e+00	3.0000e+00	1.5000e+00	3.0000e+00	

B = Detector Channel
B-1	B-2	B-3	B-4	B-5	B-6	B-7	B-8	B-9	B-10	B-11	B-12	B-13	B-14	B-15	B-16	

1.0000e+01	1.0000e+01	1.0000e+01	1.4400e+00	1.0000e+01	1.0000e+01	1.5100e+00	1.9400e+00	1.0000e+01	1.0000e+01	1.9900e+00	2.4900e+00	2.4100e+00	2.9000e+00	1.0000e+01	2.9800e+00	




#DATA BEGINS
time	group	step	mark	flag	A-AC1	A-AC2	A-AC3	A-AC4	A-AC5	A-AC6	A-AC7	A-AC8	A-AC9	A-AC10	A-AC11	A-AC12	A-AC13	A-AC14	A-AC15	A-AC16	A-DC1	A-DC2	A-DC3	A-DC4	A-DC5	A-DC6	A-DC7	A-DC8	A-DC9	A-DC10	A-DC11	A-DC12	A-DC13	A-DC14	A-DC15	A-DC16	A-Ph1	A-Ph2	A-Ph3	A-Ph4	A-Ph5	A-Ph6	A-Ph7	A-Ph8	A-Ph9	A-Ph10	A-Ph11	A-Ph12	A-Ph13	A-Ph14	A-Ph15	A-Ph16	B-AC1	B-AC2	B-AC3	B-AC4	B-AC5	B-AC6	B-AC7	B-AC8	B-AC9	B-AC10	B-AC11	B-AC12	B-AC13	B-AC14	B-AC15	B-AC16	B-DC1	B-DC2	B-DC3	B-DC4	B-DC5	B-DC6	B-DC7	B-DC8	B-DC9	B-DC10	B-DC11	B-DC12	B-DC13	B-DC14	B-DC15	B-DC16	B-Ph1	B-Ph2	B-Ph3	B-Ph4	B-Ph5	B-Ph6	B-Ph7	B-Ph8	B-Ph9	B-Ph10	B-Ph11	B-Ph12	B-Ph13	B-Ph14	B-Ph15	B-Ph16	aux-1	digaux	

555.832	1	1	0	256	0.30653	0.21501	0.20131	0.13016	0.060781	0.15503	0.056624	0.30211	0.098759	0.05163	0.07937	0.14765	0.37709	0.072566	0.051265	0.20841	-2.5667	-3.325	-2.9208	-3.4521	-3.1375	-2.9062	-3.6188	-3.1813	-3.0583	-3.3854	-3.025	-3.2771	-3.3812	-3.0167	-3.3875	-3.3292	-3.709	36.132	234.659	10.966	325.451	104.428	64.880	273.943	14.261	133.655	294.933	278.686	256.773	57.988	19.041	273.517	0.0010617	0.00019119	7.9886e-05	1540.1	1.2354e-05	1.1513e-05	1534.3	410.74	5.4152e-06	8.1455e-06	466.14	154.88	136.3	46.267	4.3487e-06	56.875	0.00058313	0.0005829	0.00016372	1569.2	6.5072e-06	6.5024e-06	1563.2	421.36	6.5334e-06	6.6022e-06	478.12	159.06	139.84	47.898	6.6353e-06	58.796	-17.348	30.845	52.141	-9.441	102.080	152.476	-9.508	-4.910	55.520	165.381	-5.216	-0.675	-0.327	3.826	118.427	3.037	-8191	255	
555.930	1	1	0	0	0.063449	0.19095	0.088542	0.19221	0.10137	0.16176	0.26764	0.35412	0.17884	0.12587	0.26492	0.12573	0.21754	0.27373	0.15961	0.2465	-2.5833	-3.2646	-2.8896	-3.3438	-3.3771	-2.8208	-3.3604	-3.2167	-2.9708	-3.3	-2.9917	-3.2333	-3.4875	-3.0146	-3.2021	-3.0396	68.931	6.106	137.537	289.603	14.533	-6.174	240.196	260.619	322.951	262.168	308.271	45.659	267.874	297.056	-3.827	280.345	0.001172	0.00040304	0.00028563	1542.8	1.3446e-05	2.9285e-06	1532.9	410.92	6.1532e-06	1.3777e-06	464.65	154.54	135.88	46.263	1.3846e-06	56.55	0.00060418	0.00060787	0.00016952	1571.3	6.6072e-06	6.6177e-06	1561.4	420.68	6.6007e-06	6.6067e-06	477.33	158.38	139.67	47.762	6.5166e-06	58.565	336.111	50.724	73.186	-9.521	65.482	161.228	-9.539	-4.879	120.986	122.051	-5.421	-0.707	-0.467	3.940	176.650	3.260	-8191	255	
556.049	1	1	0	0	0.059744	0.15151	0.25045	0.20653	0.11701	0.21131	0.15415	0.15951	0.12276	0.19002	0.11357	0.24364	0.20724	0.1469	0.22576	0.095939	-2.3354	-3.45	-2.8792	-3.2771	-3.3021	-2.7687	-3.4188	-3.4354	-2.8958	-3.5312	-3.1167	-2.9417	-3.4417	-2.9896	-3.3396	-3.2938	-18.832	306.929	141.551	290.860	18.655	295.256	247.707	185.527	140.025	217.860	326.665	322.668	297.907	2.746	210.479	154.810	0.0013214	0.00051918	0.00014572	1542.5	5.3391e-06	1.1737e-05	1532.3	411.08	5.6352e-06	4.4687e-06	467.3	154.74	136.01	46.222	7.3113e-07	56.767	0.00059094	0.00059452	0.00016379	1571.5	6.4389e-06	6.4623e-06	1561.8	420.14	6.4992e-06	6.4885e-06	477.17	158.59	139.56	47.784	6.4793e-06	58.542	-15.474	80.587	125.571	-9.380	204.183	138.202	-9.347	-4.835	53.850	93.585	-5.260	-0.812	-0.229	3.863	166.206	3.420	-8191	255	
556.145	1	1	0	0	0.14306	0.11921	0.06611	0.29396	0.068301	0.1309	0.21317	0.47814	0.15335	0.28749	0.11384	0.25781	0.078121	0.17446	0.072702	0.2101	-2.4208	-3.2	-3.0417	-3.2833	-3.4104	-3.0417	-3.2979	-3.2562	-2.6375	-3.3563	-3.1875	-2.9562	-3.4875	-3.1854	-3.075	-3.4417	320.451	108.230	208.300	306.790	236.076	332.468	258.884	308.108	69.076	244.772	121.213	21.514	239.228	30.771	190.891	264.064	0.001316	0.00080453	0.00019335	1540.1	1.0221e-05	6.1385e-06	1527.6	411.3	2.8105e-06	1.0329e-05	465.35	154.55	135.48	46.315	8.3162e-06	56.656	0.00058653	0.00058386	0.00016341	1570.4	6.4283e-06	6.4066e-06	1560.1	420.5	6.4088e-06	6.4797e-06	477.73	158.69	139.71	47.815	6.4691e-06	58.558	334.746	91.336	69.016	-9.435	98.753	210.239	-9.485	-4.765	127.134	117.953	-5.467	-0.843	-0.507	3.960	175.040	3.245	-8191	255	
556.217	1	1	0	0	0.1416	0.14026	0.11906	0.22454	0.15119	0.17242	0.30197	0.11281	0.096618	0.16312	0.10947	0.21405	0.11786	0.33781	0.079942	0.059745	-2.4417	-3.3979	-3.1146	-3.2146	-3.3563	-3.0958	-3.3542	-3.5187	-2.9333	-3.3771	-3.1854	-3.0083	-3.4125	-2.9646	-3.1083	-3.4146	294.385	208.948	160.961	308.520	94.369	104.507	212.982	317.829	3.804	87.997	314.727	184.382	320.688	292.242	217.363	-18.903	0.0010757	0.00065875	0.0001714	1544.8	6.6894e-06	2.8942e-06	1533.7	411.41	1.6572e-05	8.1589e-06	468.95	154.35	135.58	45.932	1.5901e-06	56.623	0.00059696	0.00059177	0.00016553	1572.1	6.5009e-06	6.5213e-06	1562.2	420.65	6.6114e-06	6.6513e-06	478.43	158.65	139.55	47.719	6.6579e-06	58.523	-22.049	78.374	121.340	-9.408	149.022	0.072	-9.580	-4.848	23.307	129.074	-5.325	-0.616	-0.311	3.992	45.204	2.921	-8191	255	
556.337	1	1	0	0	0.11686	0.11478	0.17653	0.23339	0.26131	0.18027	0.28023	0.20266	0.057609	0.16362	0.15095	0.2503	0.075527	0.062194	0.17416	0.0308	-2.6667	-3.1521	-3.0625	-2.925	-3.4396	-2.9167	-3.1375	-3.5042	-2.8146	-3.1875	-3.2708	-3.0125	-3.6208	-3.1521	-2.9771	-3.4813	127.662	57.541	153.092	282.991	18.606	63.068	295.493	310.251	103.846	330.112	84.130	-11.871	-4.422	12.304	225.335	199.264	0.00079633	0.00059864	0.00015959	1535.1	5.7659e-06	3.2939e-06	1532.2	409.33	7.3112e-06	8.1754e-07	465.09	154.27	135.33	46.188	2.9906e-06	56.737	0.00061198	0.00060904	0.00017004	1569.6	6.7115e-06	6.7585e-06	1562	419.78	6.7481e-06	6.7675e-06	477.79	158.58	139.36	47.757	6.7343e-06	58.665	-20.924	-16.818	9.659	-9.726	137.544	4.159	-9.557	-4.916	117.671	44.380	-5.241	-0.903	-0.231	3.979	125.152	3.257	-8191	255	
556.434	1	1	0	0	0.17107	0.13838	0.014479	0.38621	0.15492	0.24668	0.33576	0.20763	0.129	0.10256	0.24789	0.15686	0.075447	0.37967	0.041302	0.13743	-2.45	-3.3229	-3.3958	-3.2167	-3.1875	-3.0708	-3.1208	-3.4625	-2.8042	-3.1875	-3.5625	-2.9875	-3.3104	-3.1833	-3.1063	-3.5187	-17.465	247.592	282.691	303.886	120.501	270.274	287.892	317.450	88.644	336.849	270.206	253.422	203.014	297.238	112.874	73.245	0.00063972	0.00031144	0.00020448	1533.8	7.9177e-06	9.1497e-06	1532.1	410.06	1.5742e-05	4.0048e-06	462.88	153.95	134.47	45.79	4.9707e-06	56.211	0.00061938	0.00061348	0.00017271	1566.3	6.8091e-06	6.8423e-06	1562.5	420.16	6.9803e-06	6.9794e-06	478.57	158.53	139.13	47.673	7.0873e-06	58.542	-7.698	323.185	102.965	-9.391	35.603	158.803	-9.373	-4.801	163.230	138.499	-5.200	-0.600	-0.520	3.960	86.779	2.941	-8191	255	
556.530	1	1	0	0	0.2427	0.26974	0.14973	0.31256	0.17119	0.16512	0.31329	0.24391	0.090412	0.1628	0.12056	0.21039	0.13633	0.26209	0.084992	0.29758	-2.3229	-3.0083	-3.2729	-3.0938	-3.2896	-3.2687	-3.1271	-3.5229	-3.0187	-3.1771	-3.3729	-3.1583	-3.3187	-3.5292	-2.7771	-3.3875	146.571	294.256	99.938	292.322	136.736	164.953	281.367	27.176	123.613	257.074	267.121	229.840	201.912	329.032	37.879	224.538	0.00098055	0.00090356	0.0002677	1534	5.0818e-06	7.9617e-06	1532.4	409.03	9.2868e-06	8.0675e-06	463.14	152.86	134.74	45.821	6.0368e-06	56.172	0.0006495	0.00065546	0.00018259	1570.6	7.1449e-06	7.1754e-06	1564.3	419.82	7.2969e-06	7.2983e-06	478.11	158.27	139.11	47.614	7.2438e-06	58.637	336.963	24.924	65.990	-9.432	22.910	149.154	-9.620	-4.869	101.332	184.682	-5.430	-0.893	-0.252	3.925	53.300	3.231	-8191	255	
556.626	1	1	0	0	0.1601	0.12596	0.066776	0.37268	0.10266	0.1654	0.14342	0.11952	0.16557	0.075694	0.13212	0.14205	0.24673	0.29246	0.24803	0.033951	-2.725	-3.1188	-3.1646	-3.0479	-3.3187	-3.2625	-2.9958	-3.6271	-3.0208	-3.0042	-3.4604	-3.1375	-3.3396	-3.5146	-2.7687	-3.5083	197.505	141.168	-10.263	265.466	122.875	290.479	334.083	311.316	272.351	176.842	242.740	102.988	319.017	139.345	321.958	15.850	0.001109	0.00019939	0.0001924	1530.4	3.6178e-06	6.3718e-06	1532.5	408.23	2.5893e-06	4.4251e-06	464.28	153.66	134.82	45.789	3.0155e-06	56.246	0.00065598	0.00065983	0.00018311	1571.7	7.1684e-06	7.2511e-06	1564.2	419.66	7.2235e-06	7.2669e-06	478.87	158.89	139.33	47.779	7.1442e-06	58.626	324.255	195.465	64.019	-9.341	86.129	244.181	-9.453	-4.976	206.974	226.484	-5.369	-0.675	-0.333	4.033	120.919	3.096	-8191	255	
556.745	1	1	0	0	0.10266	0.12585	0.17292	0.15852	0.30424	0.10365	0.26232	0.40187	0.17776	0.15258	0.10052	0.15244	0.17399	0.1578	0.056887	0.27812	-2.7625	-2.8896	-3.3312	-3.1042	-3.0708	-3.4479	-3.125	-3.4813	-3.3208	-3.0104	-3.5208	-3.0021	-3.2375	-3.2479	-2.7917	-3.3667	317.850	75.253	73.130	314.905	195.420	333.568	285.520	262.115	287.989	311.171	39.975	255.421	278.809	230.496	65.946	221.124	0.0012597	0.00042882	9.3006e-05	1538.7	6.3676e-06	5.4597e-06	1530.1	407.7	1.9112e-06	5.0551e-06	465.4	153.42	135.09	45.968	9.5409e-06	56.422	0.00065197	0.00065516	0.00018288	1572.7	7.2183e-06	7.1656e-06	1563	419.47	7.2577e-06	7.2179e-06	479.09	158.75	139.4	47.823	7.3274e-06	58.748	-18.025	8.110	19.628	-9.478	250.849	143.795	-9.552	-4.764	333.769	125.010	-5.323	-1.004	-0.420	4.019	78.380	3.006	-8191	255	
556.841	1	1	0	0	0.073999	0.42631	0.099121	0.21699	0.11762	0.096348	0.1349	0.16836	0.13403	0.057079	0.27144	0.20206	0.17918	0.2314	0.10896	0.34958	-2.8521	-2.7687	-3.2354	-3.1896	-3.0583	-3.2687	-3.1021	-3.3854	-3.2438	-2.9188	-3.3937	-3.3021	-3.1542	-3.4354	-2.9542	-3.2708	16.307	37.502	197.326	287.457	179.911	20.218	288.863	311.695	228.206	56.054	312.276	248.511	299.631	245.593	-22.752	230.683	0.0015901	0.001092	9.453e-05	1531.9	4.5712e-06	1.1142e-06	1527.2	407.55	2.9064e-06	4.1937e-06	465.46	153.91	134.97	45.967	4.0958e-06	56.316	0.00066999	0.00067045	0.00018708	1571.7	7.448e-06	7.3854e-06	1564.8	419.78	7.502e-06	7.4839e-06	479.74	159.19	139.46	47.808	7.493e-06	58.812	335.745	47.456	145.018	-9.348	172.043	29.790	-9.702	-4.857	282.770	132.760	-5.030	-0.753	-0.277	3.984	115.535	3.363	-8191	255	
556.913	1	1	0	0	0.15154	0.23256	0.065425	0.52547	0.13426	0.27144	0.18069	0.1647	0.27413	0.17065	0.26702	0.11122	0.044146	0.24472	0.12248	0.1642	-2.8187	-2.9333	-3.3708	-3.3958	-3.0458	-3.4625	-3.2208	-3.3583	-3.4625	-2.7313	-3.4979	-3.1625	-3.0875	-3.4062	-2.7979	-3.2271	110.409	212.255	322.744	319.113	244.522	147.619	251.823	264.779	10.738	54.311	281.241	200.374	226.161	335.146	-0.169	229.066	0.00089525	0.00017927	0.00025253	1539	6.1428e-06	3.3262e-06	1529.7	408.7	1.135e-05	7.1329e-06	465.35	152.22	134.56	45.936	6.3228e-06	56.351	0.00068672	0.00068547	0.00019074	1573.9	7.5691e-06	7.5415e-06	1565.8	420.22	7.5678e-06	7.523e-06	480.27	158.91	139.59	47.838	7.4393e-06	58.869	-10.321	19.454	95.176	-9.403	52.125	114.935	-9.487	-4.716	115.889	184.789	-5.342	-0.845	-0.311	4.145	144.165	3.272	-8191	255	
557.011	1	1	0	0	0.12398	0.081921	0.040282	0.35757	0.066685	0.18416	0.14304	0.28588	0.18961	0.24655	0.248	0.22276	0.066847	0.13087	0.10838	0.069078	-2.8563	-2.7625	-3.2562	-3.5167	-2.8167	-3.4125	-3.1625	-3.2125	-3.1979	-2.8896	-3.3812	-3.2729	-3.025	-3.6354	-2.9521	-3.0104	-10.260	138.403	125.804	-21.729	300.916	177.184	234.542	305.288	122.661	112.867	264.632	303.116	178.894	224.503	156.598	182.539	0.0011217	0.00068939	0.00017775	1540.2	1.1181e-05	2.8101e-06	1524.3	409.08	6.159e-06	5.183e-06	464.65	153.76	134.54	45.753	5.9357e-06	56.356	0.00068364	0.00068232	0.00019056	1577.1	7.4901e-06	7.5265e-06	1565.7	420.83	7.5777e-06	7.6134e-06	480.71	159.47	139.66	47.883	7.6666e-06	58.94	-17.199	36.769	334.204	-9.424	38.809	106.225	-9.517	-4.754	182.010	167.807	-5.139	-0.642	-0.313	3.860	123.894	3.353	-8191	255	
557.129	1	1	0	0	0.1316	0.089875	0.21479	0.11543	0.23729	0.2472	0.20997	0.23206	0.11261	0.043271	0.1756	0.078383	0.066537	0.023944	0.32538	0.22701	-2.9562	-2.725	-3.0417	-3.2792	-2.8792	-3.4	-3.2812	-3.0458	-3.3375	-2.9125	-3.3646	-3.225	-3.0438	-3.5042	-3.0208	-3.0604	135.955	26.133	228.643	202.983	332.500	137.308	310.852	236.982	80.091	234.097	269.429	215.398	272.690	101.136	195.119	2.981	0.00086018	0.00067384	0.00030971	1537.5	1.614e-05	2.8404e-06	1531.4	408.9	2.8529e-06	4.7942e-06	465.27	153.61	134.9	45.946	4.1549e-06	56.029	0.00070021	0.00069928	0.00019475	1577.8	7.6017e-06	7.6569e-06	1569.8	421.75	7.6572e-06	7.6944e-06	481.15	159.41	139.7	48.038	7.6976e-06	58.879	326.317	1.651	86.049	-9.478	96.070	93.622	-9.699	-4.785	51.779	55.778	-5.337	-0.854	-0.349	4.025	128.710	3.127	-8191	255	
557.226	1	1	0	0	0.19822	0.070191	0.076715	0.2618	0.26574	0.13617	0.18795	0.37578	0.14892	0.20408	0.10306	0.11896	0.080542	0.05926	0.20154	0.19335	-2.8812	-2.9583	-3.0271	-3.3708	-2.8604	-3.2583	-3.2521	-2.9854	-3.4083	-2.8979	-3.1896	-3.4208	-3.0687	-3.2562	-3.0479	-2.8646	294.786	-8.690	178.052	333.426	285.363	213.736	-6.549	312.279	175.052	323.204	281.043	260.475	285.582	315.607	98.823	-11.547	0.0010117	0.000619	0.00022382	1539.3	2.4856e-06	5.9879e-06	1533	407.79	7.8045e-06	2.4607e-06	464	153	134.94	45.888	8.3874e-06	56.471	0.00070263	0.00070439	0.00019603	1577.4	7.6326e-06	7.7131e-06	1568.6	421.11	7.6543e-06	7.7184e-06	480.94	159.56	139.91	47.937	7.739e-06	59.038	334.676	99.312	50.757	-9.417	16.019	178.987	-9.657	-4.738	221.811	139.390	-5.296	-0.818	-0.178	3.970	176.335	3.262	-8191	255	
557.322	1	1	0	0	0.1572	0.08161	0.09503	0.33707	0.18797	0.16166	0.20451	0.28786	0.082515	0.048066	0.29358	0.32953	0.19938	0.14352	0.023788	0.22827	-2.8479	-2.9437	-3.0417	-3.5833	-3.0187	-3.3479	-3.375	-3.0479	-3.2521	-2.9458	-3.0812	-3.5312	-2.9208	-3.3208	-3.2417	-2.9521	163.407	229.878	135.336	329.145	231.128	154.059	295.124	268.812	298.959	95.862	256.699	321.648	236.346	332.865	314.926	270.060	0.0010249	0.00071044	0.00016204	1543.6	1.0908e-06	3.7671e-06	1535	409.53	6.257e-06	6.4446e-06	463.95	153.25	135.2	46.096	2.6895e-06	56.393	0.00070607	0.00070492	0.00019863	1581	7.7481e-06	7.7656e-06	1569.5	421.87	7.7797e-06	7.7979e-06	481.49	159.58	140.1	48.074	7.7685e-06	58.947	-12.883	50.598	18.348	-9.345	107.146	159.867	-9.623	-4.791	95.147	208.222	-5.328	-0.897	-0.309	3.867	242.717	3.135	-8191	255	
557.442	1	1	0	0	0.25776	0.25111	0.12794	0.29358	0.31427	0.27559	0.36468	0.31944	0.1592	0.23151	0.097562	0.16102	0.19393	0.11173	0.13211	0.23227	-3.0354	-3.1208	-2.7833	-3.5854	-2.8292	-3.1708	-3.5104	-3.0208	-3.3688	-3.1458	-3.1125	-3.5021	-3.0438	-3.4646	-3.2875	-2.9333	175.384	149.408	59.405	323.848	25.215	-5.711	291.157	267.676	6.220	147.849	310.234	11.394	3.352	255.514	143.046	233.105	0.00084591	0.00080507	0.00012758	1538.9	6.6569e-06	1.36e-05	1532.7	408.99	7.0682e-06	6.9797e-06	462.7	153.92	134.91	45.99	3.3045e-06	55.804	0.00070415	0.00070463	0.00019619	1579.1	7.7112e-06	7.7673e-06	1569.3	421.76	7.7612e-06	7.7542e-06	481	159.81	140	48.023	7.8159e-06	58.965	-11.748	81.301	75.227	-9.378	114.897	142.692	-9.645	-4.852	249.923	124.796	-5.406	-0.761	-0.370	4.052	108.615	3.085	-8191	255	
557.514	1	1	0	0	0.18644	0.18737	0.23597	0.2208	0.14362	0.2242	0.14819	0.12113	0.14041	0.18761	0.25332	0.044419	0.12811	0.25513	0.060402	0.2078	-2.8792	-3.0583	-2.8958	-3.5521	-3.0312	-3.1479	-3.4042	-2.9562	-3.3396	-3.0958	-3.0854	-3.3375	-3.1229	-3.2792	-3.45	-2.8646	57.426	110.572	236.478	-14.715	294.669	291.567	259.465	16.535	308.344	284.594	10.285	-7.605	260.457	324.553	289.297	280.209	0.0012118	0.0004757	0.00033402	1539.7	6.1847e-06	9.5541e-06	1534.1	408.3	1.5037e-06	2.9185e-06	463.7	153.01	134.67	45.963	3.728e-06	56.529	0.0007232	0.00072429	0.00020105	1579.1	7.9213e-06	7.9478e-06	1571.5	421.5	7.863e-06	7.9291e-06	480.89	159.76	139.74	48.04	7.907e-06	58.99	-9.374	-15.560	99.821	-9.487	101.261	143.745	-9.631	-4.921	80.256	161.371	-5.247	-1.037	-0.495	4.170	239.197	3.115	-8191	255	
557.610	1	1	0	0	0.06535	0.44832	0.23971	0.28777	0.13012	0.24438	0.18841	0.13672	0.42592	0.15601	0.17024	0.2977	0.24239	0.17101	0.11984	0.085808	-2.7229	-3.2208	-2.8375	-3.5354	-2.9896	-3.075	-3.6271	-3.0208	-3.0604	-3.2167	-2.9708	-3.3583	-3.1188	-3.0458	-3.5646	-3.0771	319.661	148.640	300.023	259.250	30.307	66.962	292.662	224.993	64.750	109.612	58.904	184.229	12.199	232.487	143.051	336.345	0.0010397	0.00073835	0.0001529	1542.4	4.4221e-06	5.5797e-06	1530.7	410.31	1.3614e-05	2.3142e-06	463.68	153.78	134.71	45.867	5.1595e-06	56.326	0.00072118	0.00072692	0.00020084	1579.4	7.8974e-06	7.8879e-06	1570.1	421.91	7.8442e-06	7.8302e-06	481.41	160.05	139.83	48.02	7.8834e-06	59.002	-13.946	13.431	3.242	-9.390	76.346	174.737	-9.483	-4.595	152.014	115.537	-5.259	-0.866	-0.359	4.035	176.521	3.346	-8191	255	
557.731	1	1	0	0	0.14428	0.017006	0.15576	0.27683	0.11032	0.089816	0.15912	0.082123	0.010417	0.019262	0.22492	0.097749	0.16316	0.097201	0.10278	0.27406	-2.6813	-3.1083	-2.7438	-3.4979	-3.2438	-2.9979	-3.4313	-3.2271	-3.1667	-3.2771	-3.0792	-3.425	-3.1646	-2.9042	-3.4917	-3.0146	-16.153	117.443	263.223	321.622	206.844	93.070	309.959	2.249	262.142	105.975	270.351	124.775	42.911	-0.097	98.177	231.282	0.0009975	0.00051024	0.00019085	1538.2	6.7797e-06	9.778e-06	1529.5	409.15	3.1481e-06	5.4152e-06	465.48	153.84	134.66	45.936	7.3942e-06	56.437	0.0007247	0.00072644	0.00020223	1579.7	7.986e-06	8.0761e-06	1572.3	422.18	8.102e-06	8.0889e-06	482.09	160.06	140.08	48.031	8.2138e-06	59.206	-19.761	31.356	43.091	-9.406	78.392	50.448	-9.509	-4.788	173.514	166.125	-5.207	-0.858	-0.388	3.938	82.812	3.125	-8191	255	
557.825	1	1	0	0	0.18877	0.15544	0.19535	0.0868	0.14001	0.22542	0.24746	0.11623	0.27891	0.43227	0.2076	0.19526	0.29841	0.060677	0.15096	0.34418	-2.6917	-3.2812	-2.9271	-3.4146	-3.0875	-2.8854	-3.5979	-3.4854	-3.1896	-3.4833	-2.8937	-3.375	-3.1813	-3	-3.4271	-3.1917	14.138	276.694	34.250	327.315	65.696	153.849	313.237	317.995	7.224	37.863	310.625	36.712	-16.744	17.455	115.745	253.769	0.00096716	0.00040874	9.4161e-05	1536.5	1.0956e-05	3.1731e-06	1527.6	410.15	5.576e-06	6.2905e-06	465.33	153.27	134.43	45.937	2.4572e-06	56.264	0.00075525	0.00075339	0.00021024	1580.5	8.2828e-06	8.3038e-06	1571.5	422.84	8.3169e-06	8.3074e-06	482.78	160.15	140.06	48.082	8.27e-06	59.186	331.814	333.307	147.688	-9.345	78.025	99.154	-9.562	-4.777	164.280	86.265	-5.289	-0.772	-0.157	4.124	91.722	3.291	-8191	255	
557.921	1	1	0	0	0.045372	0.21257	0.091648	0.093543	0.24042	0.066538	0.18938	0.25548	0.21721	0.23028	0.084887	0.051631	0.36543	0.17381	0.047944	0.15998	-2.4979	-3.4083	-3	-3.4	-3.3875	-2.9146	-3.5938	-3.3792	-3.0229	-3.5167	-3.2396	-2.9896	-3.4375	-3.1083	-3.2229	-3.2583	141.452	1.983	40.104	-2.768	156.927	64.333	25.044	290.554	141.454	184.653	252.335	311.011	308.188	252.348	1.032	50.466	0.0011562	0.00017333	5.2821e-05	1534.5	8.5173e-06	4.537e-06	1529.7	408.23	4.7088e-06	1.2048e-05	465.11	152.94	134.3	45.904	5.4779e-06	56.295	0.00075787	0.00076043	0.0002117	1580.4	8.3178e-06	8.2859e-06	1572.9	421.99	8.3546e-06	8.3588e-06	483.87	160.13	140.18	48.091	8.4131e-06	59.18	-17.326	-17.646	180.932	-9.310	73.491	23.423	-9.450	-4.906	182.229	121.361	-5.148	-0.556	-0.304	3.986	332.411	3.153	-8191	255	
558.042	1	1	0	0	0.25488	0.21548	0.12338	0.20201	0.06069	0.068393	0.20674	0.1806	0.35575	0.19683	0.16725	0.061238	0.29357	0.1923	0.11592	0.30543	-2.6375	-3.4583	-2.8917	-3.4083	-3.3104	-3.05	-3.4188	-3.4167	-2.9104	-3.4979	-3.1646	-3.3458	-3.3917	-2.9417	-3.2833	-3.3667	202.357	155.632	194.571	259.966	100.520	26.882	279.276	293.285	29.995	158.765	323.471	-16.507	322.503	310.323	42.012	307.634	0.0011142	0.00058478	0.00013624	1539	7.2776e-06	5.7945e-06	1527.9	409.02	4.3735e-06	5.0385e-06	464.45	153.46	134.33	45.784	2.9504e-06	56.216	0.00076348	0.00076371	0.00021247	1582.3	8.3496e-06	8.3026e-06	1573.7	422.28	8.2339e-06	8.2228e-06	483.2	160.06	140	48.057	8.127e-06	59.088	-12.863	-15.251	150.923	-9.331	98.856	149.180	-9.585	-5.034	117.828	117.406	-5.207	-0.723	-0.245	4.028	112.574	3.208	-8191	255	
558.114	1	1	0	0	0.040752	0.066834	0.080209	0.19496	0.11535	0.35419	0.081123	0.3463	0.18169	0.33858	0.20411	0.048823	0.097082	0.40862	0.3431	0.20776	-2.5479	-3.3563	-2.9917	-3.1562	-3.5125	-2.8854	-3.4208	-3.4688	-2.8583	-3.2125	-3.3438	-3.1396	-3.4417	-3.2354	-3.2208	-3.3563	153.717	88.014	208.152	275.676	330.247	88.343	311.403	231.461	89.270	138.677	232.463	171.544	242.363	28.586	159.049	331.017	0.0013166	0.00073505	0.00020707	1539.7	5.0374e-06	5.7382e-06	1530.4	407.04	1.9973e-05	3.9356e-06	465.7	153.28	135.08	45.7	3.7191e-06	56.094	0.00074409	0.00074068	0.00020705	1581.9	8.1408e-06	8.1072e-06	1573.2	421.68	8.145e-06	8.1146e-06	482.93	159.93	140.04	47.923	8.1107e-06	59.042	-22.769	10.936	46.405	-9.369	67.244	129.439	-9.575	-4.926	61.946	146.354	-5.169	-0.770	-0.052	4.133	68.760	3.219	-8191	255	
558.210	1	1	0	0	0.079109	0.084014	0.15228	0.20953	0.26056	0.12757	0.35167	0.24259	0.29168	0.11961	0.092802	0.14763	0.062251	0.19602	0.19814	0.13895	-2.2375	-3.4083	-3.0979	-3.0708	-3.2667	-2.7771	-3.4896	-3.5271	-2.7854	-3.3896	-3.3229	-2.9375	-3.3417	-3.1708	-3.0271	-3.5187	307.635	229.624	229.785	316.551	92.232	150.293	238.401	315.595	299.739	119.804	6.708	244.948	265.096	-13.050	195.316	288.672	0.0011953	0.00055555	0.00017904	1534.9	7.8187e-06	9.2692e-06	1523.3	409.61	2.4924e-06	1.2171e-06	463.32	153.76	135.05	46.012	1.8842e-06	56.112	0.00073237	0.00073497	0.00020487	1579.1	8.0032e-06	8.0187e-06	1568.9	422.08	7.9204e-06	7.9596e-06	481.24	159.84	140.17	48.039	7.9209e-06	58.974	-21.982	38.078	-18.133	-9.448	123.505	184.359	-9.672	-4.742	108.676	48.462	-5.294	-0.932	-0.250	4.272	156.576	3.142	-8191	255	
558.306	1	1	0	0	0.1593	0.20728	0.1115	0.015323	0.27984	0.32612	0.37201	0.29624	0.29937	0.075767	0.32855	0.16066	0.31779	0.045372	0.10946	0.15369	-2.2271	-3.1521	-2.975	-3.1021	-3.3042	-2.8292	-3.1854	-3.6167	-2.9896	-3.2854	-3.2979	-2.9604	-3.4042	-3.2542	-3.0708	-3.2875	0.985	294.583	-10.273	18.954	51.679	162.910	282.546	266.571	59.413	192.657	263.668	229.970	-16.049	310.782	73.721	253.984	0.00102	0.00043592	0.00012902	1540.4	5.8253e-06	8.4317e-06	1529.7	407.69	1.2427e-05	2.1124e-06	463.85	153.57	135.08	46.133	1.1663e-05	56.211	0.00072419	0.00072255	0.00020212	1579.8	7.9502e-06	7.9289e-06	1571.2	421.4	7.9268e-06	7.9633e-06	481.55	159.61	140.06	48.071	7.9471e-06	58.998	-15.001	32.442	40.217	-9.328	159.301	111.611	-9.555	-4.927	169.894	306.168	-5.234	-0.771	-0.280	3.903	145.317	3.155	-8191	255	
558.427	1	1	0	0	0.1903	0.16755	0.20818	0.23131	0.14768	0.18067	0.043769	0.29418	0.078592	0.060969	0.19489	0.14428	0.13246	0.31283	0.094558	0.42437	-2.475	-3.1646	-3.3083	-3.0292	-3.2167	-2.975	-3.1542	-3.5458	-3.0062	-3.1375	-3.3583	-2.8896	-3.3937	-3.3333	-2.9313	-3.4188	152.689	4.205	299.110	250.244	291.539	37.418	174.156	317.673	173.668	39.053	190.573	283.599	265.064	247.544	131.463	304.622	0.0011214	0.00047124	0.00010087	1535.5	5.1129e-06	3.8538e-06	1536.6	408.93	8.9842e-06	8.5224e-06	464.66	153.43	134.83	45.823	4.5908e-06	56.158	0.00071845	0.00071662	0.00020036	1578.5	7.8179e-06	7.8622e-06	1572	421.57	7.8096e-06	7.8801e-06	481.47	159.78	139.78	47.964	7.7562e-06	58.921	-19.089	292.463	324.508	-9.430	116.632	151.522	-9.587	-4.763	162.899	22.371	-5.296	-0.768	-0.391	4.134	138.860	3.251	-8191	255	
558.523	1	1	0	0	0.144	0.060129	0.25191	0.23126	0.17256	0.079674	0.30468	0.19548	0.26552	0.054177	0.10207	0.13502	0.36809	0.26396	0.18034	0.053295	-2.5708	-3.1	-3.1813	-2.9813	-3.2896	-3.1813	-2.9229	-3.6333	-2.9	-3.1667	-3.5604	-2.9896	-3.3688	-3.2438	-2.8792	-3.4562	241.572	247.347	315.614	73.898	247.177	135.125	309.704	280.761	89.103	223.509	308.267	-8.497	288.434	253.086	163.251	316.216	0.001123	0.00070249	7.4949e-05	1540.6	5.9361e-06	8.1233e-06	1528.1	407.24	1.2184e-05	5.5446e-06	465.25	153.52	134.18	46.101	6.7693e-06	56.43	0.00071441	0.00071665	0.00019696	1578.6	7.8177e-06	7.8356e-06	1567.7	420.87	7.7239e-06	7.6949e-06	481.54	159.36	139.64	47.988	7.668e-06	58.931	325.255	10.342	85.148	-9.387	126.403	137.963	-9.508	-4.829	96.533	111.559	-5.104	-0.891	-0.408	4.122	103.239	3.426	-8191	255	
558.619	1	1	0	0	0.10775	0.15036	0.10047	0.06373	0.11645	0.14132	0.47799	0.1893	0.1269	0.12409	0.25574	0.27635	0.21241	0.29415	0.1785	0.071365	-2.7	-2.8937	-3.3521	-3.0583	-3.1479	-3.2188	-3.0396	-3.5812	-3.1146	-3.0229	-3.4083	-2.8292	-3.0792	-3.4	-2.7938	-3.4354	-22.670	198.721	197.153	172.675	297.557	138.990	281.543	308.032	44.717	303.135	322.385	101.068	309.708	310.135	224.552	294.486	0.0006032	0.00037938	0.00026982	1534.8	8.3649e-06	1.0083e-05	1528.7	408.78	1.0953e-05	6.2604e-06	465.48	152.81	134.89	45.967	5.6226e-06	56.192	0.00069938	0.00070175	0.00019421	1576.6	7.6595e-06	7.6627e-06	1568	420.52	7.6454e-06	7.6841e-06	480.76	159.09	139.87	47.967	7.6219e-06	58.873	323.005	44.354	96.342	-9.390	326.903	129.543	-9.435	-4.703	175.570	118.617	-5.068	-0.791	-0.077	3.813	270.912	3.104	-8191	255	
558.715	1	1	0	0	0.10232	0.27095	0.12276	0.047555	0.13551	0.20109	0.3781	0.24837	0.125	0.21675	0.23782	0.078868	0.40795	0.077442	0.076553	0.29181	-2.7875	-2.9	-3.1542	-3.2021	-3.1354	-3.3667	-2.8812	-3.4479	-3.1896	-2.9292	-3.4542	-2.9958	-3.0625	-3.3604	-2.8333	-3.3667	117.003	83.603	255.379	-15.093	22.698	299.128	282.950	-22.321	336.606	302.148	39.912	129.387	-15.974	62.928	-15.875	332.126	0.00096104	0.0013489	9.2105e-05	1533.8	4.5977e-06	6.361e-06	1528.4	408.11	1.4698e-05	3.02e-06	463.25	153.33	135.31	45.815	5.4509e-06	56.226	0.00070076	0.00069655	0.00019302	1577.3	7.6313e-06	7.5993e-06	1567.2	420.69	7.5452e-06	7.6366e-06	479.86	159.19	139.89	47.921	7.5658e-06	58.922	-12.548	38.372	302.785	-9.263	49.103	108.376	-9.439	-4.738	131.988	106.742	-5.236	-0.604	-0.388	4.133	74.376	3.438	-8191	255	
558.811	1	1	0	0	0.3398	0.30862	0.10908	0.039618	0.19261	0.15452	0.14368	0.2666	0.30189	0.14398	0.13128	0.11039	0.10885	0.067075	0.16565	0.24513	-2.7042	-2.6708	-3.2167	-3.1917	-3.1063	-3.3208	-3.0896	-3.3563	-3.2938	-3.05	-3.475	-3.0312	-3.1604	-3.5125	-2.9583	-3.3333	60.426	150.915	25.275	262.442	319.775	23.459	226.974	292.529	285.225	223.050	301.602	289.538	333.411	32.534	10.369	-3.283	0.0014905	0.00033647	9.0904e-05	1537.3	1.1997e-05	8.4086e-06	1526.2	407.82	4.9639e-06	4.8595e-06	465.3	153.45	134.8	45.917	3.9663e-06	56.226	0.00069272	0.00069179	0.00019164	1576.1	7.5738e-06	7.6026e-06	1565.3	420.47	7.5691e-06	7.5953e-06	480.61	159.09	139.62	47.959	7.5358e-06	58.779	331.789	33.548	101.423	-9.430	81.372	179.687	-9.457	-4.758	225.050	231.503	-5.064	-0.804	-0.181	4.068	89.552	3.098	-8191	255	
558.906	1	1	0	0	0.31471	0.069187	0.13908	0.34592	0.049361	0.037254	0.12665	0.033241	0.20334	0.16507	0.32393	0.13723	0.031493	0.11605	0.12779	0.21265	-2.6542	-2.8312	-3.4125	-3.3667	-2.9292	-3.3875	-3.25	-3.2375	-3.4083	-2.7687	-3.5167	-3.0938	-2.8708	-3.3542	-2.9125	-3.3083	291.766	40.393	-22.339	277.024	15.144	96.209	279.661	321.721	24.360	-10.367	270.036	329.229	254.086	-13.167	163.074	302.205	0.00078623	0.0005227	0.00029117	1536.3	7.6886e-07	3.427e-06	1525.9	409.47	9.4616e-06	1.2773e-05	464.51	153.44	134.88	45.919	3.4685e-06	56.361	0.00069048	0.00069203	0.00019131	1576.6	7.5672e-06	7.5407e-06	1566.2	421.09	7.5495e-06	7.586e-06	480.33	159.37	139.59	47.895	7.5867e-06	58.874	335.905	13.606	85.960	-9.360	104.385	197.386	-9.610	-4.794	192.885	153.907	-5.169	-0.836	-0.350	4.174	139.822	3.147	-8191	255	
559.003	1	1	0	0	0.088441	0.20655	0.11205	0.2312	0.12656	0.10156	0.051583	0.24615	0.054485	0.22898	0.29259	0.26104	0.16083	0.073226	0.10899	0.16922	-2.6625	-2.725	-3.3396	-3.3146	-2.8604	-3.35	-3.1625	-3.2979	-3.1875	-2.9229	-3.2875	-3.2396	-3.0167	-3.3708	-3.0187	-3.35	164.128	230.936	18.366	336.003	333.755	143.136	68.759	-20.316	-16.204	163.777	321.488	251.904	9.022	127.528	109.108	290.465	0.0011072	0.00033515	4.7607e-05	1537.4	5.0799e-06	4.4022e-06	1533.3	407.72	5.4487e-06	5.7424e-06	463.97	153.09	134.65	45.878	6.5755e-06	56.106	0.00069398	0.00069116	0.00019378	1576.1	7.6329e-06	7.5887e-06	1567.9	420.77	7.6004e-06	7.6114e-06	480.14	159.12	139.69	47.919	7.6203e-06	58.742	308.019	59.200	286.500	-9.411	68.274	169.473	-9.449	-4.741	316.257	115.278	-5.143	-0.563	-0.254	4.098	173.797	3.262	-8191	255	
559.122	1	1	0	0	0.074634	0.17494	0.13074	0.33175	0.16578	0.037444	0.23537	0.29539	0.21032	0.13143	0.15569	0.075648	0.15186	0.16404	0.18205	0.0481	-2.8229	-2.6437	-3.1688	-3.1896	-2.8688	-3.2354	-3.1208	-3.0167	-3.3646	-3.0208	-3.4875	-3.3312	-3.075	-3.3688	-3.0458	-3.1708	181.706	38.200	-20.620	291.984	247.533	275.245	251.181	271.234	318.959	89.145	3.426	309.929	275.172	227.874	41.826	183.903	0.001238	0.00072345	0.00014525	1539	6.1488e-06	7.5752e-06	1530.3	407.28	6.9198e-06	7.7113e-06	465.67	152.72	134.78	45.972	8.1136e-06	56.273	0.00069431	0.00069443	0.00019404	1577.5	7.6322e-06	7.5642e-06	1566	420.28	7.6308e-06	7.6404e-06	480.72	159.26	139.6	47.927	7.701e-06	58.905	333.001	3.032	89.613	-9.464	91.198	137.312	-9.602	-4.867	181.234	177.420	-5.058	-0.815	-0.314	4.051	120.988	3.427	-8191	255	
559.219	1	1	0	0	0.19236	0.11474	0.14367	0.26721	0.14714	0.20648	0.49954	0.13169	0.13002	0.10322	0.17762	0.087982	0.22009	0.19827	0.083188	0.12993	-3.0229	-2.8958	-3	-3.4688	-2.7417	-3.0604	-3.3312	-3.1312	-3.3875	-2.8333	-3.3271	-3.2958	-2.8104	-3.525	-3.2292	-3.1083	240.804	56.137	214.267	-22.098	70.810	309.790	316.759	295.734	24.919	153.237	275.406	-12.742	312.473	267.475	192.525	261.561	0.00099599	0.00072004	0.00026221	1537.1	1.1657e-05	3.3931e-06	1527.1	408.51	1.0144e-05	5.6644e-06	467.09	153.42	134.65	45.812	6.8688e-06	56.234	0.00070521	0.00070642	0.00019724	1575.8	7.7138e-06	7.757e-06	1565.4	421	7.7261e-06	7.7058e-06	481.04	159.3	139.59	47.874	7.6224e-06	58.777	-14.871	45.388	88.862	-9.519	65.680	57.116	-9.284	-4.756	131.056	125.935	-5.399	-0.855	-0.188	3.968	46.988	3.178	-8191	255	
559.315	1	1	0	0	0.086569	0.17854	0.089174	0.23099	0.20698	0.24446	0.28622	0.29377	0.12325	0.23306	0.11518	0.27148	0.27133	0.062221	0.2295	0.28303	-2.9521	-2.875	-2.8333	-3.4271	-2.7729	-3.3063	-3.3479	-3.1146	-3.2854	-2.9688	-3.2083	-3.3729	-2.975	-3.2417	-3.1458	-2.9188	300.929	99.982	39.564	242.505	135.990	137.322	282.575	306.697	189.132	199.992	328.194	13.172	253.818	297.654	-10.699	-11.659	0.0010299	0.00042502	0.00017991	1535	3.8949e-06	1.2857e-05	1522.2	408.48	9.16e-06	1.063e-05	464.71	153.18	134.87	45.778	4.3929e-06	56.3	0.000695	0.00068973	0.00019303	1574.7	7.4998e-06	7.5119e-06	1564.5	420.83	7.4918e-06	7.5199e-06	479.73	158.9	139.46	47.869	7.5006e-06	58.814	-18.859	30.084	99.263	-9.234	-9.608	107.906	-9.498	-4.716	153.729	131.921	-5.292	-0.768	-0.216	3.838	94.162	3.210	-8191	255	
559.411	1	1	0	0	0.29802	0.085319	0.20723	0.18822	0.078631	0.14072	0.23641	0.12395	0.086458	0.41303	0.096791	0.10196	0.18341	0.33826	0.2018	0.33171	-2.8438	-2.9646	-2.9354	-3.5062	-2.8375	-3.3375	-3.275	-3.075	-3.2271	-3.1167	-3.0542	-3.4354	-3.1021	-3.1479	-3.1958	-2.9354	30.055	230.356	261.677	305.624	33.190	22.177	284.332	294.951	301.678	127.513	213.866	223.860	267.889	309.634	19.189	226.826	0.0011272	0.00048742	0.00024492	1535.4	5.9738e-06	7.808e-06	1531.1	406.8	5.6425e-06	7.7712e-06	464.64	152.75	135.21	46.057	5.6628e-06	56.421	0.0006884	0.00068375	0.00019205	1575.7	7.5378e-06	7.5124e-06	1565.6	420.27	7.4864e-06	7.4843e-06	479.68	158.77	139.58	47.911	7.3891e-06	58.781	325.380	166.253	99.765	-9.291	97.850	160.343	-9.249	-4.677	79.836	127.588	-5.179	-0.802	-0.164	3.824	87.275	3.281	-8191	255	
559.507	1	1	0	0	0.095733	0.171	0.19607	0.21593	0.065802	0.06887	0.14783	0.1106	0.1861	0.14784	0.17285	0.074147	0.36674	0.3385	0.036788	0.11689	-2.9125	-3.025	-2.8187	-3.5896	-2.9604	-3.1188	-3.5854	-3.0229	-3.1708	-3.0354	-3.0979	-3.4313	-3.1417	-3.0146	-3.1792	-3.0125	118.763	62.680	198.438	294.892	114.251	217.707	184.040	292.598	16.590	24.635	280.346	272.581	8.960	48.148	247.186	294.170	0.0010287	0.00095428	0.00014832	1539.7	2.7003e-06	2.0862e-06	1531.5	408.87	1.1684e-05	8.3935e-06	463.79	153.44	134.83	45.734	3.1584e-06	56.194	0.00068164	0.00068084	0.0001893	1574.5	7.4293e-06	7.4375e-06	1563	420.49	7.4287e-06	7.4302e-06	479.1	159.2	139.54	47.837	7.5104e-06	58.66	-19.079	26.677	36.185	-9.307	43.931	317.840	-9.404	-4.892	96.012	136.804	-5.271	-0.746	-0.258	4.092	99.569	3.316	-8191	255	
559.603	1	1	0	0	0.1449	0.12273	0.31338	0.10228	0.061706	0.10816	0.33508	0.07399	0.26577	0.14198	0.25396	0.19596	0.083567	0.24341	0.16482	0.14419	-2.8146	-3.0417	-2.8104	-3.2833	-2.8375	-3.0604	-3.4062	-3.0583	-3.0812	-3.2188	-2.8167	-3.4333	-3.1229	-3.05	-3.375	-3.1646	-19.151	39.525	-12.688	25.634	181.640	84.789	279.960	-14.155	234.869	16.422	334.757	227.859	174.373	330.217	235.334	201.193	0.0010037	0.00074209	7.5797e-05	1534.7	7.3806e-06	8.2088e-06	1528	408.71	2.1965e-06	1.1301e-05	463.6	152.47	134.57	45.676	1.5168e-06	55.906	0.00067929	0.00068738	0.00019047	1574.7	7.4906e-06	7.5005e-06	1564.1	420.1	7.5137e-06	7.4948e-06	479.44	158.95	139.48	47.782	7.4368e-06	58.633	-15.405	23.225	35.467	-9.274	69.420	147.945	-9.349	-4.753	146.644	183.188	-5.179	-0.751	-0.153	4.253	22.613	3.642	-8191	255	
559.724	1	1	0	0	0.13564	0.36427	0.27985	0.31388	0.057846	0.069811	0.18555	0.28314	0.22897	0.40562	0.18082	0.089075	0.14133	0.24683	0.24938	0.23324	-2.6688	-3.0917	-2.8833	-3.4917	-2.9188	-2.9771	-3.4979	-3.1292	-3.1583	-3.2021	-2.9521	-3.3875	-3.2708	-2.9	-3.4042	-3.1083	57.663	153.098	171.816	252.562	-12.379	87.448	-15.448	300.479	74.982	98.174	24.263	300.880	56.187	276.108	165.316	3.877	0.0012866	0.00034525	0.00023089	1534.3	6.7453e-06	6.3915e-06	1524.2	408.43	7.3774e-06	2.4574e-06	461.44	152.92	134.49	45.966	8.3687e-06	56.149	0.00068593	0.00068316	0.00019001	1574.1	7.488e-06	7.5214e-06	1563.7	420.47	7.4876e-06	7.5086e-06	478.85	158.8	139.37	47.893	7.4693e-06	58.727	-15.795	32.969	29.887	-9.251	56.131	172.347	-9.288	-4.677	160.967	226.003	-5.158	-0.512	-0.447	3.944	134.114	3.157	-8191	255	
559.820	1	1	0	0	0.20665	0.18651	0.14635	0.09299	0.13258	0.17586	0.28652	0.26437	0.23174	0.22894	0.27523	0.3693	0.1784	0.33087	0.2484	0.24661	-2.6813	-3.1771	-2.9604	-3.4583	-3.1292	-2.9021	-3.5708	-3.2021	-2.9875	-3.3833	-2.9792	-3.3063	-3.2125	-2.9333	-3.3396	-3.0229	300.914	95.361	135.059	261.921	55.923	-19.099	223.695	270.392	-16.517	222.917	290.158	-14.853	325.157	234.972	11.795	334.661	0.0013408	0.00025286	0.00022791	1533.9	9.5298e-06	1.4592e-06	1525.4	407.79	5.6081e-06	3.091e-06	461.19	153.18	134.37	45.799	6.415e-06	56.264	0.00068731	0.00068499	0.00018987	1574.6	7.4627e-06	7.4523e-06	1563.2	419.74	7.4366e-06	7.4455e-06	478.33	158.83	139.35	47.829	7.4974e-06	58.702	324.443	87.264	38.013	-9.364	58.452	130.717	-9.557	-4.748	331.691	147.641	-4.874	-0.343	-0.265	4.277	44.728	3.296	-8191	255	
559.914	1	1	0	0	0.23498	0.21771	0.1382	0.25688	0.085031	0.25311	0.22562	0.21528	0.11046	0.054488	0.062976	0.19562	0.1808	0.32105	0.1156	0.16204	-2.5854	-3.3583	-2.8729	-3.4229	-3.3187	-2.9625	-3.475	-3.3417	-3.0187	-3.4771	-3.0167	-3.3542	-3.2771	-3.0896	-3.4083	-3.3125	111.806	200.922	204.444	327.024	64.302	120.311	254.865	-4.480	244.738	334.468	90.659	326.565	260.772	292.469	82.029	265.996	0.00098362	0.00034471	0.0002918	1528.4	7.1505e-06	4.7111e-06	1527.1	407	7.5041e-06	3.2741e-06	462.83	152.83	134.64	45.861	6.7665e-06	56.388	0.0006865	0.00067644	0.00018946	1571.8	7.4865e-06	7.4559e-06	1564.8	419.84	7.4492e-06	7.5175e-06	478.76	158.86	139.37	47.808	7.4341e-06	58.84	320.419	324.930	123.189	-9.586	74.498	152.306	-9.525	-4.688	146.485	115.284	-5.153	-0.579	-0.174	4.183	217.773	3.351	-8191	255	
560.010	1	1	0	0	0.077102	0.028794	0.10503	0.38944	0.03225	0.16969	0.075831	0.2928	0.087144	0.043179	0.21282	0.19018	0.20407	0.009532	0.11941	0.16729	-2.5917	-3.3521	-2.8958	-3.4167	-3.3625	-2.8729	-3.4062	-3.2771	-2.8333	-3.4146	-3.0979	-3.1271	-3.3688	-2.9396	-3.0687	-3.2333	149.878	73.343	180.285	307.621	276.226	34.336	304.569	257.547	220.132	298.316	296.685	5.465	284.525	269.750	286.326	289.645	0.00060212	0.00063185	0.00019405	1535.7	4.44e-06	1.4943e-06	1526.9	407.96	7.2697e-06	9.545e-06	462.61	153.48	134.72	46.02	5.6024e-06	56.562	0.0006789	0.00067407	0.00018806	1574.6	7.4048e-06	7.3662e-06	1564.2	420.43	7.4083e-06	7.4173e-06	479.53	159.13	139.38	47.824	7.3816e-06	58.81	-14.059	65.219	59.638	-9.471	75.857	94.731	-9.552	-4.811	126.881	127.411	-5.191	-0.266	-0.317	3.998	111.657	3.337	-8191	255	
560.084	1	1	0	0	0.11602	0.12554	0.12163	0.41248	0.052497	0.24462	0.06807	0.21043	0.29293	0.11082	0.054727	0.20656	0.20359	0.20664	0.14643	0.10748	-2.575	-3.1604	-3.0458	-3.1583	-3.625	-2.9062	-3.4562	-3.3937	-2.9271	-3.3146	-3.2521	-3.1729	-3.7562	-3.1646	-3.2396	-3.5062	173.520	272.414	11.219	271.084	336.677	321.409	283.721	334.413	89.654	192.573	320.429	59.714	318.007	326.516	138.773	6.147	0.0013072	0.00039872	0.00019177	1530.4	1.8855e-06	1.2066e-05	1528.2	407.41	6.9338e-06	4.0108e-06	461.8	153.59	134.77	46.078	5.8631e-06	56.351	0.0006793	0.00067605	0.00018905	1573	7.4113e-06	7.4617e-06	1562.9	419.59	7.3799e-06	7.4395e-06	477.93	159.1	139.43	47.846	7.3741e-06	58.734	-5.749	127.005	144.310	-9.302	47.534	160.925	-9.495	-4.715	90.378	87.439	-4.961	-0.740	-0.047	4.090	112.696	3.440	-8191	255	
560.203	1	1	0	0	0.24759	0.2047	0.29297	0.16031	0.18979	0.055564	0.16031	0.0775	0.10473	0.1226	0.20407	0.20389	0.18193	0.083573	0.26614	0.1045	-2.6063	-3.2646	-3.0687	-3.1229	-3.3646	-2.8208	-3.2229	-3.3979	-2.7021	-3.2417	-3.1229	-2.9979	-3.5458	-3.05	-3.1437	-3.2833	178.424	336.814	306.618	299.070	305.895	188.830	312.728	155.770	324.548	8.845	1.115	14.260	336.952	40.388	220.934	155.962	0.0011564	0.00063977	9.0297e-05	1535.4	8.5333e-06	6.5399e-06	1527.1	407.58	7.6562e-06	6.2758e-06	464.61	153.73	135.17	46.05	1.03e-06	56.361	0.00067213	0.00066811	0.00018573	1575	7.3208e-06	7.3147e-06	1566.7	419.75	7.3144e-06	7.3339e-06	478.54	159.18	139.56	47.894	7.332e-06	58.624	-1.750	70.625	-12.177	-9.325	56.485	235.914	-9.481	-4.859	117.801	120.578	-5.047	-0.517	-0.363	4.096	140.975	3.438	-8191	255	
560.299	1	1	0	0	0.055233	0.16247	0.11835	0.34208	0.21271	0.20786	0.16874	0.20013	0.31307	0.17736	0.17771	0.46062	0.10406	0.22511	0.057792	0.2983	-2.5	-3.1083	-3.0438	-3.2729	-3.3812	-2.9979	-3.3104	-3.475	-2.8417	-3.3792	-3.3979	-2.9125	-3.4729	-3.1917	-2.9292	-3.3958	299.555	192.053	237.410	302.310	165.904	109.648	246.803	296.283	23.480	305.696	213.464	3.485	293.187	275.724	87.057	208.521	0.0013268	0.00070981	0.00014786	1534.8	5.6557e-06	4.7069e-06	1526.8	406.91	1.239e-05	6.649e-06	461.67	153.56	134.33	46.015	7.4624e-06	56.284	0.00066685	0.00067365	0.00018767	1572.1	7.4077e-06	7.424e-06	1563.8	419.64	7.3757e-06	7.4401e-06	478.11	159.17	139.57	47.886	7.4464e-06	58.77	335.442	324.751	65.232	-9.291	65.147	188.174	-9.516	-4.793	120.311	211.863	-5.421	-0.575	-0.255	4.157	108.143	3.419	-8191	255	
560.395	1	1	0	0	0.33875	0.062095	0.067727	0.24636	0.081819	0.097022	0.13782	0.3526	0.30864	0.30143	0.27011	0.083962	0.26994	0.28327	0.13164	0.077893	-2.475	-3.1146	-3.3125	-2.9958	-3.1833	-3.1562	-3.0771	-3.45	-2.9667	-3.1625	-3.325	-3.0125	-3.4125	-3.2875	-3	-3.2833	122.684	218.388	-1.713	274.933	5.981	114.859	-1.027	309.647	18.983	118.574	324.791	-16.053	318.323	95.914	324.665	40.509	0.0013255	0.00030265	2.1256e-05	1533.1	3.5789e-06	5.319e-06	1524.8	408.43	1.0415e-05	1.5306e-05	465.31	153.83	134.58	45.815	8.6646e-07	56.448	0.00068029	0.00068548	0.00019027	1573.5	7.4011e-06	7.4387e-06	1562.8	420.12	7.4537e-06	7.4914e-06	479.55	159.24	139.48	47.846	7.3844e-06	58.801	-2.132	47.262	314.144	-9.307	-13.427	227.838	-9.518	-4.665	130.708	151.684	-5.314	-0.828	-0.117	4.168	208.565	3.431	-8191	255	
560.491	1	1	0	0	0.16716	0.29828	0.11866	0.19255	0.034332	0.24109	0.19964	0.29754	0.10731	0.050052	0.0071924	0.29728	0.1747	0.17931	0.1103	0.14273	-2.5938	-2.9854	-3.1208	-3.0375	-3.3042	-3.0646	-3.0271	-3.5229	-3.025	-3.1292	-3.5125	-2.9729	-3.2729	-3.1937	-3.0104	-3.5146	83.042	334.104	100.675	248.688	190.554	302.669	285.523	232.113	114.810	318.339	142.915	294.863	320.048	286.710	313.953	277.056	0.0012733	0.00069853	6.7864e-05	1535.5	5.4156e-06	4.2487e-06	1528.7	408.61	2.3626e-06	6.728e-06	461.79	153.48	134.99	45.662	4.9906e-06	56.223	0.00068107	0.00067931	0.00018763	1574.3	7.3985e-06	7.4199e-06	1564	420.03	7.3921e-06	7.4845e-06	478.84	158.78	139.57	47.781	7.3919e-06	58.739	-11.082	105.768	152.871	-9.234	82.556	8.744	-9.511	-4.665	-5.465	212.564	-5.181	-0.507	-0.446	4.158	142.843	3.434	-8191	255	
560.610	1	1	0	0	0.069511	0.025409	0.18115	0.16076	0.050215	0.24957	0.17796	0.13599	0.081291	0.0056355	0.28745	0.11934	0.30974	0.19539	0.24839	0.12245	-2.5062	-2.9604	-3.225	-2.9958	-3.3063	-3.0646	-2.9625	-3.5083	-3.2292	-2.7646	-3.4458	-3.0021	-3.2188	-3.3563	-2.7854	-3.2687	271.096	34.809	-10.812	-12.106	201.033	147.683	315.524	-13.247	123.029	150.582	20.965	4.550	313.758	317.983	315.662	311.747	0.0011846	0.00054669	0.00017581	1530.2	1.1832e-06	3.153e-06	1524.9	408.73	6.899e-06	6.7758e-06	463.48	152.69	135.4	45.838	1.9205e-06	56.158	0.00067893	0.00067429	0.00018747	1572.6	7.3988e-06	7.3871e-06	1559.9	420.14	7.4289e-06	7.4074e-06	478.47	158.85	139.53	47.757	7.343e-06	58.669	-18.462	-16.753	99.535	-9.315	267.250	214.031	-9.318	-4.695	51.325	199.004	-5.121	-0.562	-0.265	4.253	177.212	3.403	-8191	255	
560.683	1	1	0	0	0.086864	0.13004	0.29168	0.22524	0.29979	0.092962	0.35122	0.25131	0.18685	0.2607	0.051094	0.14567	0.20633	0.16728	0.16939	0.047967	-2.6625	-2.9854	-3.4104	-3.1125	-3.0563	-3.275	-3.0271	-3.4917	-3.1396	-3.0438	-3.3917	-2.8833	-3.3771	-3.3146	-2.8271	-3.3312	32.552	257.413	270.077	262.152	92.103	207.812	228.251	300.800	94.933	101.884	324.403	183.399	298.292	8.442	311.375	228.901	0.0010036	0.00044151	0.00023037	1536.1	7.5279e-06	1.3067e-05	1527.8	407.39	1.9582e-05	6.9642e-06	464.37	153.78	134.26	45.646	7.5347e-06	56.208	0.00067005	0.00067116	0.00018423	1573.7	7.3595e-06	7.3342e-06	1564.7	419.73	7.3753e-06	7.3567e-06	479.21	158.9	139.36	47.746	7.3521e-06	58.679	-19.238	60.059	39.296	-9.327	119.032	133.857	-9.191	-4.792	167.956	143.032	-4.935	-0.769	-0.248	4.007	131.227	3.603	-8191	255	
560.804	1	1	0	0	0.14321	0.047258	0.097548	0.37575	0.25092	0.081225	0.41865	0.057952	0.072886	0.18403	0.4741	0.064743	0.071697	0.17045	0.058818	0.08737	-2.6	-2.9125	-3.2021	-3.2521	-3.1479	-3.2938	-3.0854	-3.3792	-3.225	-2.825	-3.4125	-3.0687	-3.0604	-3.3979	-2.7354	-3.25	275.987	189.368	139.057	-2.952	244.319	222.972	247.364	291.373	170.438	297.263	319.989	242.588	5.225	11.038	72.807	227.303	0.00085931	0.00015847	0.00026156	1533	3.7287e-06	7.5393e-06	1531.9	407.71	9.9118e-06	2.7094e-06	462.89	152.93	134.69	45.821	7.0061e-06	56.201	0.00067322	0.00067734	0.00018898	1572.3	7.4057e-06	7.3919e-06	1563.8	419.94	7.3403e-06	7.3727e-06	477.87	158.86	139.3	47.739	7.3668e-06	58.586	-18.448	233.278	76.253	-9.135	196.382	170.172	-9.453	-4.650	106.509	101.208	-5.181	-0.599	-0.123	4.274	97.064	3.613	-8191	255	
560.900	1	1	0	0	0.30565	0.035964	0.08894	0.18843	0.2473	0.15845	0.042108	0.11234	0.088788	0.041146	0.24459	0.1076	0.29293	0.19614	0.20518	0.11545	-2.9667	-2.8521	-3.2771	-3.2292	-2.8521	-3.4771	-3.1375	-3.2729	-3.2479	-3.1375	-3.2687	-3.0958	-3.1146	-3.5417	-3.0521	-3.1125	284.792	333.564	75.075	-15.014	29.785	118.232	255.653	285.562	61.428	308.305	249.686	77.954	323.684	335.680	-15.497	248.254	0.00092314	0.0001904	0.0002282	1531	6.5922e-06	4.7568e-06	1528.6	408.51	1.674e-05	4.3726e-06	465.49	153.5	134.61	46.049	9.6399e-06	56.142	0.00066412	0.00066663	0.00018557	1571.2	7.2719e-06	7.2887e-06	1562.8	419.98	7.2712e-06	7.2913e-06	479.16	158.92	139.46	47.826	7.3179e-06	58.688	333.917	290.810	-0.416	-9.423	-22.649	194.817	-9.351	-4.867	69.862	160.877	-5.276	-0.460	-0.266	3.919	56.507	3.718	-8191	255	
560.995	1	1	0	0	0.15273	0.12463	0.12209	0.1384	0.19318	0.11776	0.33189	0.29189	0.14495	0.11389	0.19359	0.247	0.31147	0.048624	0.08918	0.18065	-2.8563	-2.7354	-3.3063	-3.3375	-2.9354	-3.2375	-3.1792	-3.2354	-3.2771	-2.8958	-3.3292	-3.3688	-3.0563	-3.3271	-2.9583	-3.2208	13.899	-17.491	92.808	318.368	33.876	303.220	300.167	169.475	66.876	189.841	190.508	65.820	-20.764	149.542	142.374	187.455	0.0011528	0.00042664	0.00024112	1535.2	1.0917e-05	4.1982e-06	1530.2	407.1	1.1033e-05	7.8242e-06	462.37	153.86	134.56	45.758	3.1688e-06	56.079	0.00066167	0.00067001	0.00018513	1572.5	7.3402e-06	7.2862e-06	1563.1	419.69	7.3609e-06	7.3538e-06	478.46	159.09	139.33	47.706	7.3121e-06	58.626	-4.865	203.158	72.671	-9.344	-1.441	150.035	-9.319	-4.825	84.354	157.355	-5.321	-0.541	-0.283	4.060	14.530	3.582	-8191	255	
561.091	1	1	0	0	0.12838	0.14496	0.21292	0.23802	0.17548	0.38338	0.12032	0.42573	0.30291	0.063103	0.18491	0.033234	0.24821	0.26294	0.18998	0.20092	-2.8125	-2.7812	-3.1188	-3.4083	-2.7542	-3.3292	-3.1708	-3.1729	-3.3187	-2.8396	-3.3792	-3.3	-3.0438	-3.2687	-2.9896	-3.0271	-8.975	82.254	246.271	309.227	291.932	0.047	237.939	305.339	236.567	325.848	199.938	202.767	25.322	316.023	85.056	314.100	0.0010457	0.00085088	0.0002249	1535.8	9.0449e-06	1.3112e-05	1523.6	407.72	1.4179e-05	2.4655e-06	461.96	153.47	134.67	46.033	1.8047e-06	56.554	0.00067206	0.00067211	0.00018671	1572	7.3359e-06	7.3572e-06	1562.3	419.42	7.2761e-06	7.3514e-06	478.76	158.98	139.45	47.83	7.2939e-06	58.688	1.973	17.463	10.914	-9.233	103.680	156.462	-9.562	-4.833	79.480	145.694	-5.051	-0.643	-0.344	4.166	-14.343	3.199	-8191	255	
561.211	1	1	0	0	0.028663	0.088895	0.21924	0.093751	0.1602	0.008694	0.095785	0.14772	0.1501	0.15437	0.15888	0.11216	0.23207	0.089614	0.096703	0.23089	-2.8292	-2.7958	-3.0021	-3.4333	-2.5854	-3.1333	-3.1625	-3.0646	-3.2708	-2.9333	-3.2667	-3.2313	-3.0208	-3.3146	-3.0979	-2.9479	24.542	17.675	287.333	303.776	248.930	134.078	317.058	23.618	150.380	49.676	-18.986	168.176	12.359	185.432	275.508	294.378	0.001087	0.00044269	0.00023436	1537.8	2.5555e-06	4.823e-06	1525.1	407.64	2.751e-06	5.6833e-06	462.12	153.39	134.85	45.797	1.5509e-06	56.24	0.00067201	0.00067428	0.00018671	1573.4	7.345e-06	7.3735e-06	1560.6	419.71	7.3833e-06	7.349e-06	478.45	158.89	139.22	47.87	7.3731e-06	58.67	336.930	37.820	110.622	-9.283	81.535	131.481	-9.307	-4.500	168.576	72.362	-5.093	-0.734	-0.311	4.175	330.707	3.334	-8191	255	
561.283	1	1	0	0	0.18743	0.20379	0.058083	0.16329	0.13972	0.11523	0.024369	0.18986	0.23717	0.087419	0.10949	0.17803	0.34394	0.17077	0.18578	0.25053	-2.9229	-2.9479	-2.9917	-3.3354	-2.8958	-3.2771	-3.2667	-3.1167	-3.2896	-3.0687	-3.05	-3.2812	-2.9458	-3.3417	-3.2292	-2.975	264.372	62.667	236.002	241.776	43.110	182.290	162.100	274.847	37.920	336.511	300.360	262.012	239.321	11.308	104.791	313.157	0.0010123	0.0003884	5.0597e-05	1529.7	5.3862e-06	2.5729e-06	1526.1	408.82	8.9153e-06	1.2715e-05	463.69	153.54	134.56	45.921	4.7153e-06	56.221	0.00067361	0.00067225	0.00018712	1570.5	7.3495e-06	7.3853e-06	1562.9	420.08	7.3694e-06	7.3683e-06	478.9	158.73	139.51	47.832	7.296e-06	58.651	-0.616	49.280	-4.598	-9.276	111.446	239.324	-9.500	-4.676	148.148	129.209	-5.127	-0.714	-0.188	3.896	145.774	3.512	-8191	255	
561.379	1	1	0	0	0.039186	0.32049	0.054321	0.15811	0.13299	0.052294	0.38428	0.31629	0.30544	0.17145	0.16778	0.02684	0.06259	0.16449	0.16274	0.17843	-2.9229	-3.0146	-2.8187	-3.5708	-2.8792	-3.0604	-3.4938	-2.9146	-3.3917	-3.1375	-3.2292	-3.4083	-3.0312	-3.2354	-3.1521	-3.0312	115.210	52.537	182.162	207.573	20.899	185.996	295.539	279.838	154.570	199.684	33.990	72.314	264.951	259.927	213.512	292.918	0.0012315	0.00050727	0.00013369	1533.5	3.1072e-06	1.3828e-05	1527.2	408.62	2.4476e-06	6.5536e-06	465.38	153.28	134.86	45.738	8.3779e-06	56.304	0.00067219	0.00067104	0.00018676	1572	7.3162e-06	7.333e-06	1562.3	419.95	7.2561e-06	7.3301e-06	478.46	158.91	139.44	47.757	7.2882e-06	58.673	327.883	-12.528	104.477	-9.257	95.779	118.146	-9.482	-4.703	140.605	121.839	-5.187	-0.811	-0.235	4.161	98.915	3.458	-8191	255	
561.500	1	1	0	0	0.14015	0.041719	0.11912	0.26141	0.084286	0.17675	0.24856	0.086199	0.058538	0.020808	0.1558	0.13673	0.098829	0.13446	0.012981	0.11453	-2.9625	-3.0375	-2.9125	-3.5042	-2.8917	-3.175	-3.5146	-2.9625	-3.3396	-3.2083	-2.9521	-3.1937	-3.1542	-3.2188	-3.3854	-3.0917	196.557	-15.644	228.992	-2.552	320.966	-16.388	244.065	316.070	208.143	89.236	260.206	279.358	-8.217	289.660	281.433	43.429	0.00094661	0.00088799	0.00011369	1534.6	9.5921e-06	4.4493e-06	1523.2	408.6	6.4739e-06	5.7162e-06	464.53	152.52	134.77	45.865	4.8048e-06	56.414	0.0006664	0.00066682	0.00018558	1572.2	7.3302e-06	7.3658e-06	1563	420.04	7.316e-06	7.3557e-06	478.54	158.76	139.49	47.871	7.3168e-06	58.827	-15.742	39.088	81.394	-9.433	18.357	161.155	-9.481	-4.648	39.091	96.561	-5.240	-0.746	-0.104	4.145	147.524	3.653	-8191	255	
561.596	1	1	0	0	0.029298	0.15682	0.1584	0.065203	0.29812	0.23479	0.21675	0.11516	0.11296	0.30004	0.26721	0.063208	0.12967	0.14983	0.071856	0.28625	-2.8521	-3.1188	-3.0187	-3.675	-2.9792	-2.9938	-3.4833	-3.0125	-3.1437	-3.1063	-3.0083	-3.4917	-3.0979	-3.1333	-3.3812	-2.8667	156.137	104.085	151.738	275.555	323.074	162.444	317.840	313.289	192.897	61.540	313.017	158.843	269.814	224.208	274.239	237.128	0.00097309	0.00076458	0.0002558	1532.8	6.955e-06	2.5502e-06	1530.4	407.23	4.7007e-06	4.76e-06	462.47	153.05	134.51	45.74	5.6332e-06	56.109	0.00067153	0.00066981	0.00018612	1571.5	7.2894e-06	7.2854e-06	1561.7	418.95	7.2879e-06	7.2997e-06	477.79	158.71	139.5	47.811	7.2271e-06	58.632	-15.660	41.653	27.747	-9.214	102.067	107.340	-9.202	-4.703	264.388	182.759	-5.225	-0.708	-0.196	4.441	63.706	3.441	-8191	255	
561.692	1	1	0	0	0.12766	0.17803	0.11636	0.16627	0.22379	0.23631	0.16589	0.31704	0.099116	0.10602	0.19589	0.38381	0.035851	0.11718	0.20288	0.24427	-2.6604	-3.2542	-2.8625	-3.3875	-3.1542	-3.1188	-3.5792	-3.0604	-3.1271	-3.3063	-2.7667	-3.45	-3.2938	-2.8187	-3.4021	-3.2562	118.559	32.250	130.656	282.374	107.833	214.707	241.465	-20.588	6.445	190.760	323.145	259.570	33.382	-13.110	144.243	328.168	0.0010596	0.00058392	0.00014598	1533.3	4.0196e-06	4.5691e-06	1522.8	406.61	5.2355e-06	4.7529e-06	460.99	153.76	134.38	45.953	1.0834e-05	56.228	0.00067123	0.00066561	0.00018557	1571.7	7.2769e-06	7.3338e-06	1560.8	419.15	7.3209e-06	7.3459e-06	477.4	159.03	139.28	47.839	7.2992e-06	58.708	-11.492	-16.432	48.018	-9.272	83.522	115.839	-9.386	-4.791	205.920	48.914	-5.114	-0.764	-0.248	4.202	122.948	3.223	-8191	255	
561.788	1	1	0	0	0.39218	0.13174	0.059386	0.256	0.19192	0.33155	0.049038	0.28675	0.2715	0.17578	0.2796	0.21321	0.20958	0.16107	0.10195	0.21381	-2.75	-3.3312	-2.8625	-3.4958	-3.3208	-2.8917	-3.4375	-3.1771	-3.1146	-3.1333	-2.9417	-3.1729	-3.25	-2.875	-3.3104	-3.0812	95.927	91.026	114.231	298.199	270.183	27.611	190.324	299.662	84.301	167.732	275.602	270.114	325.960	212.777	283.322	49.910	0.00086314	0.00034031	0.0001766	1533.3	9.8537e-06	6.9539e-06	1525.7	407.23	5.1409e-06	6.3613e-06	465.29	153.4	135.02	45.84	1.6096e-06	56.308	0.00066641	0.00066952	0.00018643	1573	7.3366e-06	7.3302e-06	1561.6	419.44	7.3684e-06	7.3451e-06	479.42	159.06	139.53	47.805	7.3862e-06	58.795	-19.784	76.032	119.543	-9.254	79.579	45.067	-9.266	-4.694	188.345	161.066	-5.088	-0.836	-0.059	4.252	114.567	3.148	-8191	255	
561.907	1	1	0	0	0.053704	0.056724	0.11401	0.074022	0.15135	0.10769	0.17777	0.25443	0.32108	0.188	0.12888	0.16698	0.27597	0.21149	0.057437	0.31766	-2.4813	-3.2542	-2.8667	-3.2188	-3.2062	-2.6458	-3.5687	-3.2146	-2.8	-3.4396	-2.9646	-3.2292	-3.4188	-2.9688	-3.1479	-3.2375	328.714	236.880	204.431	261.078	300.871	-8.238	264.659	-6.402	226.826	10.936	58.266	264.290	-3.878	-8.876	259.684	206.214	0.00093765	0.00062916	2.8954e-05	1536.8	8.6335e-06	7.7032e-06	1525.1	407.42	6.684e-06	3.6609e-06	463.81	154.01	134.41	45.992	5.9294e-06	55.982	0.00067598	0.00066997	0.00018845	1573.8	7.4106e-06	7.4482e-06	1561.9	419.4	7.4064e-06	7.403e-06	478.75	158.96	139.42	47.83	7.3688e-06	58.62	-14.272	284.087	251.606	-9.516	98.067	228.722	-9.561	-4.839	186.058	278.134	-5.312	-0.423	-0.211	4.083	134.477	3.406	-8191	255	
561.979	1	1	0	0	0.071992	0.11278	0.26277	0.16406	0.062689	0.09691	0.14817	0.31416	0.1975	0.158	0.20798	0.25034	0.26799	0.46055	0.12553	0.12141	-2.5083	-3.2812	-2.8646	-3.1333	-3.2146	-2.8583	-3.5563	-3.2292	-2.8646	-3.3958	-3.0667	-3.1667	-3.3833	-3.0458	-3.2	-3.3667	220.007	172.720	153.709	-13.053	154.232	48.614	284.955	320.984	304.676	153.926	320.012	308.908	329.001	270.836	11.944	-3.772	0.0013083	0.00029006	0.00010042	1536.1	6.6445e-06	4.5028e-06	1522.7	407.22	1.0235e-05	4.5221e-06	463.53	152.67	134.6	45.887	4.8603e-06	56.121	0.00067295	0.00067617	0.00018726	1571.6	7.3989e-06	7.3866e-06	1561.7	419.65	7.4545e-06	7.4609e-06	478.52	158.55	139.4	47.841	7.4469e-06	58.714	-20.916	105.865	4.060	-9.324	167.181	153.970	-9.428	-4.866	164.623	152.393	-5.133	-0.524	-0.289	4.136	219.844	3.561	-8191	255	
562.075	1	1	0	0	0.1373	0.31063	0.14213	0.048332	0.22713	0.24571	0.1874	0.20462	0.12797	0.091793	0.14887	0.078026	0.082999	0.17056	0.26533	0.08895	-2.4896	-3.3125	-3.0375	-3.2958	-3.2208	-2.8937	-3.4167	-3.3438	-2.7938	-3.3021	-3.3438	-3.0521	-3.4667	-3.0083	-3.2229	-3.4062	-15.696	-4.186	-5.347	175.297	61.123	54.508	268.323	279.776	140.144	32.956	4.379	-15.691	32.083	316.370	28.781	318.713	0.0011728	0.00028141	6.6471e-05	1533.3	4.5761e-06	7.69e-06	1528.2	406.13	4.0482e-06	3.0464e-06	463.84	152.44	134.64	45.842	9.6478e-06	56.127	0.00067731	0.00067686	0.00018785	1572.4	7.4087e-06	7.3826e-06	1563.2	419.39	7.4231e-06	7.4237e-06	478.75	158.71	139.31	47.824	7.3878e-06	58.632	-19.247	68.886	106.751	-9.364	50.016	130.939	-9.435	-4.660	24.408	241.062	-5.103	-0.392	-0.245	4.456	120.178	3.351	-8191	255	
562.171	1	1	0	0	0.15874	0.022416	0.26792	0.21637	0.040728	0.053544	0.13221	0.34448	0.16889	0.23848	0.22527	0.3063	0.21425	0.061114	0.1049	0.10085	-2.4521	-3.2875	-2.8771	-3.35	-3.2875	-2.8479	-3.2979	-3.4188	-2.825	-3.3875	-3.1542	-3.0375	-3.4896	-3.0354	-3.2188	-3.4625	-8.781	9.920	-3.076	285.855	77.191	98.991	258.890	241.882	130.487	173.495	277.774	24.286	306.149	-9.437	52.052	240.890	0.0010715	0.00071172	0.00011565	1530	5.1568e-06	9.4002e-06	1528.6	406.65	9.3268e-06	9.8839e-06	461	152.96	134.9	45.932	6.7158e-06	56.216	0.00068044	0.00067725	0.00018835	1571.1	7.4218e-06	7.4275e-06	1562.1	419.67	7.4051e-06	7.4966e-06	478.32	158.76	139.59	47.821	7.4776e-06	58.803	-12.845	134.668	60.695	-9.217	139.385	159.200	-9.420	-4.963	53.192	175.223	-5.000	-0.712	-0.288	4.256	232.578	3.246	-8191	255	
562.292	1	1	0	0	0.15634	0.10221	0.20858	0.33501	0.168	0.061726	0.22392	0.32567	0.12199	0.2059	0.18772	0.076795	0.21852	0.1214	0.1369	0.17099	-2.4896	-3.2812	-3.0521	-3.0312	-3.2083	-3.1208	-3.175	-3.5208	-2.9188	-3.4479	-3.2271	-3.0583	-3.3875	-3.0229	-3.0354	-3.3563	107.888	263.789	110.188	294.375	133.859	296.804	270.157	302.401	304.524	132.043	74.225	35.654	-8.527	299.485	298.923	308.456	0.00064946	0.00024463	0.00025787	1535.6	1.1132e-05	6.9287e-06	1526.5	407.35	2.9512e-06	4.2853e-06	461.82	153.71	135.04	45.784	6.4241e-06	56.171	0.00067853	0.00068533	0.00018821	1572	7.4419e-06	7.4815e-06	1561.5	419.77	7.3985e-06	7.4447e-06	477.74	158.96	139.63	47.767	7.3963e-06	58.68	332.192	324.752	88.296	-9.254	41.902	161.111	-9.402	-4.628	125.343	251.599	-5.025	-0.673	-0.210	4.302	72.333	3.530	-8191	255	
562.388	1	1	0	0	0.11408	0.19576	0.1136	0.40591	0.14863	0.15211	0.21441	0.14592	0.10697	0.068372	0.16691	0.1109	0.10322	0.13244	0.28134	0.034961	-2.6146	-3.025	-3.2042	-3.2333	-3.3333	-3.1646	-3.0542	-3.5354	-2.925	-3.0521	-3.4542	-2.9104	-3.6417	-3.1396	-3.1	-3.4333	316.315	151.916	0.344	333.426	287.926	225.603	210.446	-20.660	24.650	219.678	269.207	-11.734	194.786	290.396	222.930	99.553	0.0013993	0.00084423	0.00013536	1532.4	6.1659e-06	4.2191e-06	1530.1	406.01	3.1016e-06	8.3857e-06	463.42	152.82	134.71	45.782	4.2288e-06	56.19	0.00067463	0.00067727	0.00018826	1571.9	7.4261e-06	7.4473e-06	1561.4	419.14	7.4282e-06	7.4992e-06	478.55	159	139.35	47.795	7.4206e-06	58.616	-20.590	0.604	317.417	-9.293	105.819	43.220	-9.506	-4.655	213.478	129.579	-5.181	-0.685	-0.270	4.232	57.546	3.342	-8191	255	
562.484	1	1	0	0	0.072702	0.10424	0.14755	0.068697	0.16234	0.11968	0.14579	0.25677	0.060525	0.25473	0.13063	0.04058	0.19664	0.24165	0.14399	0.03243	-2.6813	-3.1333	-3.1312	-2.9708	-3.1312	-3.1792	-3.0979	-3.6542	-2.8708	-3.1188	-3.5104	-3.0625	-3.4875	-3.2604	-3.0333	-3.3854	282.851	10.629	49.538	207.119	189.178	139.355	279.330	244.775	144.449	192.253	178.661	284.759	336.562	-16.996	169.650	122.716	0.0010469	0.00041596	8.8737e-05	1534.1	8.967e-06	1.4305e-05	1522.2	406.49	1.1473e-05	1.3217e-05	461.78	153.83	134.11	45.882	4.3932e-06	56.443	0.00067268	0.0006793	0.00018748	1571.1	7.376e-06	7.3644e-06	1561.2	419.24	7.3506e-06	7.3984e-06	477.81	159	139.41	47.844	7.3489e-06	58.697	-21.403	108.115	131.985	-9.381	139.969	182.061	-9.512	-4.682	166.372	114.838	-4.975	-0.757	-0.195	4.150	113.074	3.026	-8191	255	
562.580	1	1	0	0	0.142	0.22954	0.16123	0.22768	0.085006	0.16183	0.26681	0.21702	0.12044	0.21536	0.19378	0.19466	0.051842	0.092591	0.22835	0.14571	-2.5854	-2.9896	-3.3271	-2.9854	-3.1979	-3.2229	-3.0812	-3.5354	-3.0333	-3.0583	-3.4479	-2.9875	-3.3042	-3.4021	-2.7583	-3.3688	316.778	49.981	227.265	1.169	145.790	56.562	284.076	246.285	-10.784	328.324	328.906	328.304	234.562	264.380	329.672	4.921	0.0007857	0.00035812	3.9001e-05	1535.1	7.414e-06	8.2153e-06	1523.5	405.8	1.3003e-05	2.7905e-06	462.57	153.39	134.49	45.95	6.5105e-06	56.195	0.00067418	0.00067176	0.0001868	1571.6	7.302e-06	7.357e-06	1560.5	418.9	7.3263e-06	7.3211e-06	478.14	158.82	139.38	47.79	7.3147e-06	58.747	5.236	24.170	275.987	-9.195	55.023	104.158	-9.355	-4.614	93.199	152.498	-4.923	-0.838	0.014	4.095	115.782	3.462	-8191	255	
562.676	1	1	0	0	0.21014	0.2029	0.13813	0.07844	0.078209	0.17704	0.23468	0.33851	0.10133	0.14835	0.14228	0.27559	0.16904	0.14651	0.24117	0.2193	-2.7708	-2.8625	-3.1083	-3.0521	-3.0812	-3.2625	-3.0625	-3.5271	-2.8146	-3.0104	-3.3146	-3.0021	-3.2313	-3.3646	-2.9417	-3.4167	172.364	153.307	170.480	50.272	303.515	154.542	228.271	287.393	41.951	185.510	-0.281	258.642	0.032	228.541	-1.055	300.366	0.0010186	0.0011235	0.00018471	1529.5	6.0886e-06	2.9682e-06	1522.1	407.92	2.5512e-06	2.2493e-06	461.59	154.15	134.24	45.772	2.6565e-06	55.894	0.00066774	0.00066348	0.0001843	1568.8	7.2517e-06	7.2307e-06	1559.3	419.55	7.2362e-06	7.3032e-06	477.63	159.09	139.23	47.801	7.3025e-06	58.582	-3.029	-1.640	73.081	-9.172	63.257	218.122	-9.460	-4.707	130.323	153.384	-5.305	-0.305	0.059	4.115	144.590	3.533	-8191	255	
562.773	1	1	0	0	0.015527	0.27572	0.10543	0.26003	0.078523	0.070664	0.11085	0.040563	0.0076481	0.085176	0.30366	0.25436	0.33807	0.11894	0.18369	0.12053	-2.6896	-2.9292	-3.3125	-3.1583	-3.1375	-3.3604	-2.9604	-3.3312	-3.0604	-2.9896	-3.4125	-2.975	-3.1167	-3.3667	-2.8667	-3.4271	6.497	296.674	293.213	274.119	72.010	60.294	293.167	307.057	24.857	158.371	-15.793	-17.570	-17.165	124.408	157.991	263.203	0.0011765	0.00042793	0.00012562	1531.7	9.1113e-06	2.158e-06	1520.9	405.98	2.9566e-06	2.0007e-06	462.84	152.84	134.26	45.981	8.1206e-06	56.368	0.00067191	0.00066635	0.00018433	1568.2	7.2226e-06	7.2832e-06	1558.5	418.74	7.2461e-06	7.2197e-06	477.76	158.69	139.26	47.78	7.2367e-06	58.719	-11.496	85.204	323.631	-9.303	80.133	150.525	-9.281	-4.628	133.619	143.035	-5.390	-0.355	-0.109	4.315	137.649	3.472	-8191	255	
562.891	1	1	0	0	0.081376	0.24244	0.17772	0.28214	0.058917	0.076886	0.23517	0.40232	0.1523	0.13283	0.13333	0.1475	0.24912	0.30439	0.15688	0.2289	-2.7271	-2.8042	-3.4083	-3.25	-2.8458	-3.5146	-3.225	-3.2854	-3.05	-2.9104	-3.4437	-3.3708	-3.1875	-3.5208	-2.9188	-3.0812	283.978	246.891	317.376	316.195	24.999	334.952	242.977	309.445	262.842	149.673	-3.532	240.713	298.423	307.665	42.592	188.835	0.0008885	0.00036746	5.3556e-05	1529.7	9.185e-06	7.0634e-06	1522.3	406.04	8.1079e-06	3.7288e-06	463.72	153.78	134.91	45.851	7.8855e-06	56.572	0.00066499	0.00066293	0.00018413	1567.4	7.2681e-06	7.2634e-06	1558.4	418.98	7.2196e-06	7.2304e-06	478.12	158.8	139.52	47.779	7.2418e-06	58.719	-12.114	35.131	227.385	-9.384	105.333	184.338	-9.581	-4.477	76.179	182.549	-5.409	-0.540	-0.122	4.367	80.841	3.543	-8191	255	
562.988	1	1	0	0	0.38889	0.10282	0.25194	0.16047	0.19219	0.085481	0.15345	0.16265	0.2229	0.43009	0.24065	0.089669	0.29215	0.27698	0.23267	0.14944	-2.8271	-2.6396	-3.2667	-3.3458	-2.9125	-3.1146	-3.2104	-3.2021	-3.45	-2.7604	-3.5229	-3.2396	-2.9583	-3.5187	-2.9083	-3.2708	139.774	204.225	157.611	302.473	4.652	9.643	260.889	94.530	40.942	224.325	336.793	218.567	-11.547	215.252	63.366	234.572	0.0010123	0.00017633	6.2024e-05	1533.5	7.3155e-06	9.3464e-06	1524.7	407.74	4.2948e-06	1.1962e-05	461.77	153.07	134.41	45.961	8.247e-06	56.334	0.00066619	0.00066302	0.00018507	1571.2	7.2758e-06	7.2516e-06	1560.3	419.54	7.3125e-06	7.2657e-06	477.47	158.77	139.37	47.781	7.2619e-06	58.636	-16.255	68.049	70.639	-9.308	141.786	124.741	-9.321	-4.549	107.611	129.767	-4.953	-0.427	-0.253	4.238	153.857	3.514	-8191	255	
563.084	1	1	0	0	0.14672	0.12101	0.11351	0.30351	0.23746	0.086589	0.075624	0.33859	0.16805	0.30163	0.20858	0.29854	0.41685	0.094211	0.23234	0.21881	-2.8146	-2.9271	-3.0458	-3.4271	-2.5667	-3.45	-3.1833	-3.1667	-3.4792	-2.9021	-3.3021	-3.2625	-3.05	-3.4562	-3.1333	-3.0958	134.888	53.295	9.313	325.817	326.185	71.300	297.978	298.683	332.850	195.032	279.327	37.878	288.614	48.654	112.814	10.974	0.0010525	0.00043286	0.00013587	1534.9	7.0215e-06	1.0289e-06	1528.4	407.62	2.9261e-06	7.0956e-06	462.01	153.08	135.17	45.742	1.0508e-05	56.062	0.00066341	0.00066323	0.00018518	1570.7	7.2129e-06	7.2425e-06	1561.7	418.99	7.2506e-06	7.2363e-06	478.21	158.88	139.47	47.799	7.3076e-06	58.595	-14.977	89.649	19.829	-9.239	142.924	58.500	-9.483	-4.692	75.268	121.572	-5.152	-0.691	-0.145	4.150	144.313	3.667	-8191	255	
563.204	1	1	0	0	0.23198	0.054366	0.0038233	0.28292	0.2519	0.19882	0.23059	0.19716	0.21515	0.058378	0.14464	0.26622	0.15476	0.18046	0.1185	0.25217	-2.8125	-2.9167	-2.9521	-3.5167	-2.8083	-3.3042	-3.2229	-3.0125	-3.4688	-2.8563	-3.2583	-3.3667	-2.6854	-3.3458	-3.0771	-2.9271	168.597	87.091	334.592	297.959	276.293	19.673	229.811	235.990	197.786	335.557	62.720	13.357	270.424	47.209	69.311	263.845	0.0010966	0.00067864	7.8202e-05	1531.5	9.1043e-06	3.6956e-06	1524.2	407.38	2.7009e-06	4.598e-06	461.86	153.75	134.42	45.883	2.1462e-06	56.361	0.00066751	0.00067205	0.00018698	1570.1	7.3351e-06	7.3508e-06	1560.1	419.74	7.3602e-06	7.3767e-06	478.52	158.9	139.43	47.787	7.367e-06	58.707	-14.751	13.337	121.406	-9.301	169.957	192.295	-9.246	-4.685	322.153	164.343	-5.046	-0.456	-0.182	4.103	141.756	3.450	-8191	255	
563.276	1	1	0	0	0.049068	0.060062	0.23988	0.40125	0.10379	0.21173	0.22732	0.24685	0.06739	0.15966	0.1525	0.26249	0.20178	0.28363	0.049272	0.15021	-2.9896	-2.9479	-3.1104	-3.6646	-2.8937	-3.2458	-3.2396	-2.8833	-3.3521	-3.0542	-3.1833	-3.3979	-3.0958	-3.4042	-3.2458	-3.0417	224.923	313.357	80.983	329.509	118.039	91.584	238.854	296.156	178.930	258.627	208.926	289.019	15.654	302.349	243.277	249.957	0.0013049	0.0012203	0.00026921	1530.8	1.1394e-06	5.3558e-06	1521.4	407.92	1.3622e-05	1.197e-05	461.85	153.82	134.23	45.917	3.5671e-06	56.303	0.00066808	0.00066914	0.0001853	1569.6	7.2615e-06	7.3403e-06	1559.4	419.33	7.2835e-06	7.2654e-06	477.97	158.9	139.15	47.852	7.286e-06	58.645	-1.844	42.411	58.127	-9.249	326.267	172.718	-9.434	-4.571	98.263	103.443	-5.124	-0.740	-0.226	4.210	94.246	3.583	-8191	255	
563.372	1	1	0	0	0.22265	0.092565	0.16255	0.40292	0.19467	0.21819	0.16078	0.45257	0.2397	0.13291	0.22252	0.33344	0.24217	0.25823	0.12363	0.21266	-3.0062	-3.0187	-2.8958	-3.4833	-2.9188	-3.0979	-3.3208	-3.1375	-3.35	-3.1958	-3.1375	-3.3208	-2.9833	-3.2562	-3.2521	-2.9542	33.536	16.961	-19.942	325.419	81.368	83.378	298.678	297.197	263.875	-15.102	322.407	-7.965	317.784	253.302	17.045	304.377	0.00093597	0.00085266	0.00010933	1532	4.6522e-06	2.4977e-06	1521.8	407.18	1.0739e-05	7.934e-06	464.29	153.2	134.68	45.931	8.6471e-06	55.903	0.00066191	0.00066278	0.00018463	1569.6	7.2306e-06	7.2803e-06	1559.9	418.77	7.2841e-06	7.2862e-06	478.29	158.67	139.36	47.873	7.2277e-06	58.569	-8.795	41.385	79.204	-9.279	45.609	215.469	-9.450	-4.658	102.021	168.593	-5.257	-0.469	-0.057	4.232	179.830	3.395	-8191	255	
563.468	1	1	0	0	0.068215	0.10441	0.054222	0.37093	0.34916	0.29097	0.2409	0.16119	0.094803	0.3041	0.11648	0.087761	0.37599	0.18614	0.14595	0.16649	-2.8396	-2.9062	-2.9042	-3.4042	-2.9167	-3.1708	-3.45	-2.8812	-3.2917	-3.2313	-3.1063	-3.4354	-3.0938	-3.1271	-3.3063	-3.0062	66.036	152.431	100.238	281.147	208.111	185.053	236.687	206.854	182.462	208.490	273.112	273.571	-5.524	322.160	211.123	209.485	0.00098267	0.00082753	0.00017347	1528	7.3116e-06	9.5701e-06	1525.2	407.17	9.6487e-06	2.9046e-06	462.4	153.76	134.63	46.011	1.2184e-06	56.303	0.00066437	0.00066623	0.00018404	1569.4	7.2257e-06	7.2301e-06	1561.3	419.07	7.2052e-06	7.2327e-06	477.58	158.57	139.33	47.845	7.2042e-06	58.643	-18.622	7.495	124.047	-9.220	85.897	150.736	-9.424	-4.587	96.824	224.166	-4.959	-0.639	-0.190	4.168	188.178	3.444	-8191	255	
563.589	1	1	0	0	0.1022	0.070982	0.052463	0.29726	0.069463	0.013376	0.31286	0.24464	0.19521	0.25427	0.34142	0.1788	0.11492	0.11742	0.081532	0.19335	-2.7	-3.0146	-2.7875	-3.3917	-2.9104	-3.0021	-3.4708	-2.9208	-3.2188	-3.2354	-3.0271	-3.4958	-3.0333	-3.0167	-3.2979	-3.0958	120.422	89.499	202.965	318.949	53.204	148.260	322.918	305.527	26.619	71.077	5.031	300.327	141.568	313.693	143.750	301.818	0.0012139	0.00014692	8.7951e-05	1532.7	3.4904e-06	8.6709e-06	1524.8	407.41	7.528e-06	8.021e-06	465.74	153.83	134.28	45.951	8.6774e-06	56.058	0.00066824	0.00066005	0.00018479	1569.4	7.2446e-06	7.2825e-06	1560.9	419.24	7.2513e-06	7.269e-06	478.35	158.85	139.19	47.806	7.2309e-06	58.62	-13.604	139.835	224.291	-9.217	77.411	105.482	-9.165	-4.656	172.461	138.180	-5.122	-0.630	-0.144	4.460	64.152	3.583	-8191	255	
563.685	1	1	0	0	0.24083	0.12927	0.14032	0.09334	0.19247	0.13815	0.17366	0.30028	0.34236	0.20118	0.15476	0.057753	0.083028	0.28566	0.036432	0.32507	-2.7958	-3.2313	-2.8292	-3.4729	-3.1542	-2.9625	-3.4333	-2.9396	-3.2104	-3.2396	-3.0167	-3.3417	-3.2479	-3.0396	-3.4604	-3.0208	264.823	306.376	326.992	195.873	8.857	197.975	236.424	272.741	100.946	89.220	281.199	66.007	25.926	217.237	229.316	265.200	0.00076659	0.00057984	0.00012366	1525	3.1201e-06	2.77e-06	1524.7	406.01	7.822e-07	7.0503e-06	464.07	153.33	134.93	45.781	6.8838e-06	56.282	0.0006618	0.00066055	0.00018392	1568.2	7.232e-06	7.2503e-06	1560.3	418.84	7.2072e-06	7.2713e-06	477.77	158.5	139.39	47.788	7.2781e-06	58.575	-11.667	63.705	60.167	-9.118	259.682	280.483	-9.501	-4.560	39.266	148.957	-5.021	-0.525	-0.196	4.389	5.559	3.334	-8191	255	
563.780	1	1	0	0	0.10386	0.17948	0.17735	0.32953	0.15552	0.23181	0.22924	0.14327	0.073915	0.087996	0.18266	0.17113	0.21137	0.033015	0.091879	0.061146	-2.8146	-3.2104	-2.8375	-3.5375	-3.1271	-2.8	-3.6479	-3.1896	-3.0479	-3.2479	-3.0771	-3.1896	-3.2875	-3.0104	-3.2938	-3.0687	192.466	322.246	81.979	8.770	275.367	284.126	312.748	249.351	38.016	35.117	307.637	22.571	296.740	44.440	301.211	257.186	0.0014382	0.00023639	5.5853e-05	1532.8	6.1433e-06	3.4566e-06	1519.6	405.91	8.9556e-06	3.9253e-06	462.26	153.56	134.42	45.902	1.7514e-06	56.209	0.00065875	0.00065949	0.00018382	1569.3	7.2023e-06	7.2814e-06	1558	418.56	7.25e-06	7.2298e-06	477.28	158.69	139.17	47.746	7.2034e-06	58.582	-18.561	263.762	109.833	-9.234	109.246	4.787	-9.499	-4.616	136.738	131.317	-4.918	-0.559	0.006	4.231	130.482	3.449	-8191	255	
563.853	1	1	0	0	0.21134	0.10595	0.083226	0.12369	0.19286	0.03012	0.13638	0.18077	0.20796	0.057823	0.021499	0.030842	0.19022	0.14311	0.30317	0.13518	-2.3875	-3.1708	-2.8583	-3.3125	-3.1646	-2.95	-3.7375	-3.3396	-2.8708	-3.4042	-3.0792	-3.1958	-3.2208	-3.2146	-3.3104	-3.1792	86.982	175.642	27.705	260.435	256.084	62.608	284.169	228.916	240.308	3.182	295.355	140.298	327.187	-10.647	95.332	278.171	0.0012224	0.00045082	6.8848e-05	1535.5	1.3099e-05	4.3162e-06	1520.2	406.64	8.6001e-06	3.6898e-06	462.52	152.96	134.93	45.906	9.5012e-06	56.269	0.00065497	0.00065534	0.00018139	1569.8	7.152e-06	7.1707e-06	1557.2	418.2	7.0896e-06	7.1103e-06	477.13	158.61	139.25	47.747	7.1631e-06	58.629	-17.116	31.777	133.175	-9.185	83.209	129.907	-9.417	-4.547	102.078	31.494	-5.232	-0.597	-0.199	4.152	127.505	3.448	-8191	255	
563.972	1	1	0	0	0.26573	0.2677	0.069043	0.21427	0.16413	0.2078	0.11418	0.062976	0.12457	0.10796	0.12384	0.14504	0.085128	0.11872	0.11374	0.22749	-2.4188	-3.3083	-2.8937	-3.45	-3.2458	-2.9688	-3.6688	-3.3625	-2.9188	-3.4417	-3.0667	-3.1688	-3.475	-2.7542	-3.15	-3.1146	303.051	200.924	125.014	322.736	294.420	144.069	284.399	216.826	319.952	50.323	137.360	231.747	238.783	239.766	242.435	272.186	0.00086978	0.00011965	0.00013305	1534.5	1.2267e-05	6.4131e-06	1528	407.08	8.9946e-06	7.9575e-06	465.03	153.54	134.88	45.978	3.3893e-06	56.372	0.00064813	0.0006533	0.0001814	1570.2	7.1511e-06	7.1314e-06	1559.9	418.57	7.1102e-06	7.1079e-06	477.81	158.69	139.32	47.734	6.9911e-06	58.592	-14.426	66.310	-12.702	-9.455	121.044	190.873	-9.355	-4.575	104.962	116.168	-4.992	-0.619	-0.149	4.104	121.122	3.391	-8191	255	
564.068	1	1	0	0	0.29895	0.080909	0.38113	0.26527	0.14727	0.22387	0.1131	0.14806	0.028571	0.24971	0.091848	0.062433	0.15672	0.037325	0.28038	0.13221	-2.4542	-3.2583	-3.1167	-3.2604	-3.2438	-2.6896	-3.4562	-3.3937	-2.7375	-3.1937	-3.2167	-3.1771	-3.5854	-3.0938	-3.1146	-3.2625	199.625	216.003	0.097	284.526	210.836	125.629	283.692	232.602	40.659	184.155	336.738	291.050	331.585	274.076	70.766	268.821	0.00094362	0.00024523	0.00017596	1532.2	1.7778e-06	9.1775e-06	1523.7	406.89	1.1971e-05	9.4834e-06	461.53	153.4	134.47	45.809	5.3006e-06	56.446	0.00064424	0.00063962	0.00017781	1568	7.0056e-06	6.971e-06	1558.5	418.9	7.0077e-06	6.9768e-06	476.73	158.76	139.24	47.703	7.0306e-06	58.675	-13.857	125.925	82.928	-9.222	0.246	114.628	-9.362	-4.604	76.197	228.153	-4.982	-0.687	0.005	4.005	79.919	3.413	-8191	255	
564.164	1	1	0	0	0.1697	0.15893	0.13165	0.27015	0.19414	0.16915	0.16753	0.29377	0.16819	0.22434	0.26612	0.12546	0.074311	0.16053	0.15266	0.19717	-2.4229	-3.1208	-2.9521	-2.9667	-3.4333	-2.9833	-3.3	-3.3521	-2.7958	-3.3	-3.1479	-2.9396	-3.5312	-3.0167	-3.0625	-3.5104	255.745	87.618	205.062	-20.651	74.001	118.009	285.374	238.168	207.781	-3.890	334.638	302.332	241.513	330.118	-11.077	201.233	0.0013329	0.00090212	9.6422e-05	1528.5	3.8488e-06	1.566e-06	1523.4	406.43	4.6024e-06	6.4593e-06	463.15	153.65	134.3	45.997	5.4071e-06	56.663	0.00064343	0.00064651	0.00017986	1567	7.0662e-06	7.036e-06	1558.3	418.87	7.0706e-06	7.078e-06	477.27	158.8	139.26	47.776	7.0435e-06	58.651	-11.024	61.637	291.336	-9.304	152.345	125.236	-9.440	-4.513	253.905	179.347	-5.051	-0.903	-0.062	4.148	57.899	3.309	-8191	255	
564.285	1	1	0	0	0.069247	0.17579	0.16413	0.44543	0.24977	0.13043	0.19944	0.28323	0.15122	0.043747	0.11402	0.13857	0.20052	0.066164	0.228	0.21727	-2.5021	-3.2354	-3.0708	-3.2208	-3.2938	-3.0458	-3.2458	-3.3896	-2.7667	-3.2875	-3.1063	-2.9833	-3.5083	-3.2146	-3.0583	-3.3417	99.390	168.686	211.730	238.448	208.915	-15.254	260.263	219.157	81.411	127.704	233.538	54.106	283.585	-22.006	315.706	-11.026	0.00095679	0.00027933	0.00015094	1526.9	1.1258e-05	2.4309e-06	1524.9	407.23	8.9752e-06	2.4385e-06	463.99	154.03	134.98	46.036	7.3828e-06	56.55	0.00064563	0.0006411	0.00017921	1566.5	7.0062e-06	7.0453e-06	1559.3	418.58	7.0461e-06	7.1042e-06	477.75	158.71	139.39	47.784	7.051e-06	58.651	333.883	337.026	319.426	-9.114	47.438	153.148	-9.420	-4.709	138.959	84.785	-4.856	-0.364	-0.095	4.158	135.928	3.297	-8191	255	
564.381	1	1	0	0	0.20479	0.09366	0.0037245	0.21871	0.30097	0.26489	0.17635	0.063846	0.11512	0.21701	0.1288	0.19979	0.16466	0.17472	0.15619	0.21186	-2.5104	-3.3333	-3.2167	-3.1854	-3.3083	-3.075	-3.0146	-3.4646	-2.8792	-2.9125	-3.3333	-2.8208	-3.3604	-2.9958	-2.8917	-3.3958	199.869	250.065	60.770	240.858	-9.382	110.655	297.298	304.171	323.162	112.645	172.221	241.917	258.741	289.359	283.384	278.861	0.0012559	0.00063765	0.00012965	1528.8	5.2511e-06	6.0962e-06	1525.1	406.03	6.636e-06	1.7778e-06	464.22	153.76	134.86	45.874	5.9727e-06	56.518	0.00064096	0.00064099	0.00017843	1569.1	6.9976e-06	6.9505e-06	1559.3	418.17	7.0093e-06	7.0128e-06	477.17	158.73	139.47	47.72	7.0778e-06	58.559	-7.419	57.394	125.192	-9.333	72.864	318.768	-9.099	-4.529	106.759	168.472	-4.980	-0.610	-0.050	4.507	82.526	3.544	-8191	255	
564.453	1	1	0	0	0.079638	0.11784	0.12957	0.20089	0.18443	0.1783	0.099514	0.10983	0.058579	0.2431	0.16982	0.20644	0.24041	0.13189	0.057909	0.252	-2.4562	-3.0625	-3.1896	-3.0146	-3.2875	-3.1875	-3.0542	-3.4667	-3	-3.1875	-3.4792	-2.9396	-3.2687	-3.2146	-2.6833	-3.25	176.002	147.396	230.118	317.171	72.841	96.829	174.268	231.844	26.128	65.024	-19.877	193.184	303.624	311.810	195.272	209.970	0.00092165	0.00059878	0.00015999	1531.5	1.1534e-05	9.4356e-06	1519.9	407.71	1.2023e-05	1.202e-05	463.7	153.46	134.73	45.863	7.6292e-06	56.309	0.00064902	0.00064109	0.00017945	1568.5	7.0374e-06	7.0929e-06	1556.7	418.66	7.0888e-06	7.1107e-06	477.39	158.69	139.34	47.811	7.1685e-06	58.684	-3.696	15.604	35.995	-9.393	88.969	139.498	-9.458	-4.501	8.602	172.534	-5.121	-0.260	-0.017	4.331	106.367	3.511	-8191	255	
564.573	1	1	0	0	0.093417	0.078041	0.22673	0.32463	0.20372	0.1648	0.15001	0.37238	0.076524	0.057851	0.14175	0.14185	0.13953	0.18983	0.12745	0.35972	-2.6063	-3.0292	-3.3667	-3.0771	-3.2208	-3.1833	-3.1604	-3.5604	-3.1396	-3.1271	-3.5917	-2.9437	-3.3	-3.3104	-2.9771	-3.3187	86.704	134.985	236.813	331.356	272.107	187.229	160.032	336.315	229.656	116.528	32.957	278.862	324.460	133.585	281.098	259.821	0.00093186	0.00026461	0.00015563	1530.2	3.6621e-06	1.3367e-06	1525.5	406.71	4.0232e-06	7.3891e-06	463.43	153.25	135.35	46.07	7.8323e-06	56.292	0.00064912	0.00065371	0.00017979	1568.4	7.0773e-06	7.1064e-06	1558.7	418.67	7.0035e-06	7.0388e-06	477.18	158.7	139.76	47.873	6.9854e-06	58.621	-9.158	309.356	87.865	-9.255	56.770	260.329	-9.194	-4.435	139.232	166.384	-5.007	-0.677	-0.218	4.358	109.145	3.182	-8191	255	
564.669	1	1	0	0	0.18209	0.082425	0.12758	0.20278	0.13382	0.016703	0.12733	0.46254	0.072781	0.15078	0.12598	0.19004	0.019948	0.19664	0.18835	0.14751	-2.5062	-2.7938	-3.3458	-3.0438	-3.1917	-3.15	-3.2354	-3.6979	-3.1896	-2.8875	-3.4542	-3.0771	-3.3333	-3.3479	-2.8542	-3.5208	255.547	11.431	0.430	250.781	249.157	33.682	279.734	284.966	14.827	240.645	63.664	259.512	113.146	305.241	311.635	239.036	0.0010291	0.00032036	7.7649e-05	1527.5	3.6963e-06	5.5809e-06	1526.2	407.97	3.4342e-06	8.6185e-06	462.28	153.15	134.99	46.056	7.161e-06	56.461	0.00064136	0.00063677	0.00017703	1567.3	7.0186e-06	7.056e-06	1561.4	419.14	7.1148e-06	7.1151e-06	478.11	158.89	139.57	47.859	7.1802e-06	58.768	-6.263	118.369	4.636	-9.259	83.996	117.872	-9.373	-4.669	73.271	218.153	-5.140	-0.444	-0.080	4.230	141.398	3.497	-8191	255	
564.765	1	1	0	0	0.25136	0.20246	0.04831	0.25924	0.063694	0.11717	0.073041	0.074852	0.19703	0.29261	0.12422	0.098561	0.36457	0.20823	0.042584	0.11042	-2.7521	-2.9208	-3.5646	-3.1208	-2.975	-3.325	-3.1333	-3.4458	-3.1083	-2.8667	-3.3708	-3.0854	-3.1354	-3.3812	-2.8875	-3.3646	234.475	115.151	132.655	-21.563	123.118	171.583	190.201	202.060	101.036	252.976	208.195	143.376	335.275	335.496	309.675	332.762	0.0011283	0.00032679	9.3859e-05	1534.1	7.8733e-06	8.4839e-07	1521.4	406.32	1.4377e-05	6.949e-06	462.66	153.48	134.57	46.147	3.1232e-06	56.489	0.00066159	0.00066263	0.00018427	1570.3	7.281e-06	7.2679e-06	1561	419.08	7.357e-06	7.3103e-06	477.72	158.95	139.46	47.924	7.3523e-06	58.776	-7.569	336.567	62.916	-9.219	31.657	293.284	-9.153	-4.547	161.453	77.529	-5.180	-0.597	-0.216	4.358	10.830	3.433	-8191	255	
564.884	1	1	0	0	0.042164	0.10476	0.13037	0.22815	0.08867	0.13893	0.16545	0.084555	0.027275	0.22247	0.25329	0.082138	0.20307	0.13076	0.086259	0.21396	-2.9375	-2.7083	-3.4771	-3.2208	-2.9333	-3.1979	-2.9979	-3.3812	-3.1688	-2.8271	-3.4021	-3.2438	-2.975	-3.5187	-2.925	-3.3	180.387	100.882	215.060	298.392	-19.972	88.396	327.572	-13.434	109.201	281.494	288.752	159.958	310.882	41.438	319.000	287.043	0.00075434	0.00047905	0.00018924	1533.3	7.6965e-06	1.6797e-06	1520.1	407.18	8.6183e-06	1.0143e-05	462.57	153.12	134.81	45.853	6.3825e-06	56.255	0.00068178	0.0006795	0.0001888	1570.8	7.4713e-06	7.5057e-06	1561.9	419.43	7.54e-06	7.5541e-06	478.2	159.17	139.72	47.869	7.5543e-06	58.814	-6.175	125.397	87.025	-9.346	183.003	66.918	-9.329	-4.561	210.685	184.826	-5.174	-0.437	0.001	4.218	87.437	3.491	-8191	255	
564.981	1	1	0	0	0.13433	0.057382	0.12233	0.059296	0.23839	0.18562	0.19148	0.13973	0.037934	0.29783	0.58324	0.22457	0.10806	0.20184	0.24544	0.1233	-2.9979	-2.7625	-3.0625	-3.5229	-3.1333	-3.3104	-3.175	-3.2875	-3.2104	-2.8646	-3.3937	-3.0708	-2.9333	-3.2687	-2.9167	-3.2042	264.952	325.953	93.329	38.625	138.359	136.673	277.772	306.297	16.928	148.253	-4.229	78.112	-14.150	299.291	329.842	118.287	0.00070891	0.00088807	0.00030292	1529.6	1.0841e-05	1.278e-05	1521.5	406.79	7.1472e-06	1.0043e-05	461.9	153.23	134.54	45.966	4.9874e-06	56.237	0.00068514	0.0006835	0.00018908	1570	7.4408e-06	7.4614e-06	1560.9	419.81	7.4686e-06	7.5014e-06	478.25	159.33	139.64	47.84	7.483e-06	58.796	-14.031	168.820	86.437	-9.134	77.575	151.794	-9.417	-4.581	134.464	75.699	-4.790	-0.670	-0.101	4.308	97.079	3.456	-8191	255	
565.077	1	1	0	0	0.061024	0.28351	0.054184	0.20414	0.18445	0.046032	0.24368	0.054907	0.19602	0.11409	0.10431	0.23075	0.087595	0.23707	0.1155	0.19094	-2.6771	-2.8479	-3.0771	-3.2458	-2.6937	-3.1771	-3.0375	-3.0187	-3.1729	-2.8875	-3.3604	-3.2104	-3.0292	-3.4729	-2.8958	-3.0708	304.068	200.404	132.055	305.232	125.980	258.229	273.696	259.724	334.736	98.509	242.512	322.474	296.460	8.895	225.733	-19.263	0.00086645	0.00036511	4.7806e-05	1529.7	7.7564e-06	1.1637e-05	1521.4	406.69	1.9577e-06	2.2023e-06	461.93	153.06	134.63	45.839	4.0499e-06	56.219	0.00068921	0.00068803	0.00019205	1571.9	7.5801e-06	7.602e-06	1563.4	419.79	7.6542e-06	7.6173e-06	478.82	159.08	139.74	47.871	7.6076e-06	58.834	330.996	28.786	85.377	-9.206	77.587	217.326	-9.306	-4.620	236.532	161.145	-4.903	-0.326	-0.115	4.313	99.069	3.346	-8191	255	
565.148	1	1	0	0	0.13465	0.017404	0.14867	0.27444	0.12285	0.10636	0.35137	0.26169	0.20788	0.12456	0.26768	0.021186	0.13127	0.12866	0.10391	0.18354	-2.7333	-2.7375	-3.1958	-3.3312	-2.9167	-3.3521	-3.2042	-3.1375	-3.2667	-2.9562	-3.1771	-3.3979	-2.9833	-3.4417	-3.0854	-3.0646	36.914	311.749	207.513	208.040	276.058	206.547	256.189	231.010	231.466	324.090	222.885	109.045	281.472	309.246	-6.768	222.060	0.0013854	0.00077489	0.00017264	1531.4	1.1148e-05	1.2023e-05	1534.4	405.98	3.5389e-06	2.0694e-06	463.71	153.34	134.74	45.861	9.6761e-06	56.177	0.00069402	0.00069057	0.00019269	1571.8	7.5916e-06	7.5512e-06	1565.1	419.66	7.5985e-06	7.5978e-06	479.23	159.4	139.61	47.919	7.6104e-06	58.8	-13.410	27.911	43.903	-9.350	104.785	212.155	-9.205	-4.529	132.864	69.961	-4.973	-0.633	-0.139	4.199	135.933	3.568	-8191	255	
565.269	1	1	0	0	0.057585	0.26591	0.071913	0.11233	0.19331	0.085873	0.21755	0.18066	0.092537	0.22926	0.21778	0.093497	0.17897	0.074163	0.11515	0.098431	-2.9875	-2.9271	-2.9938	-3.4625	-2.9271	-3.3333	-3.3875	-2.9729	-3.2896	-2.7646	-3.0708	-3.2188	-3.0708	-3.3458	-3.1312	-2.9646	284.097	68.164	-4.158	311.377	-7.298	246.643	257.894	283.632	1.332	190.344	133.095	326.227	311.800	332.285	42.041	258.804	0.0011366	0.00098238	0.00025808	1533	6.8847e-06	2.9958e-06	1520.6	406	3.6369e-06	4.7222e-06	462.52	153.02	134.61	45.925	7.4255e-06	56.092	0.00069789	0.00070069	0.00019448	1574.5	7.6634e-06	7.64e-06	1563.1	419.63	7.5699e-06	7.5668e-06	479.15	158.95	139.54	47.835	7.6382e-06	58.762	334.139	92.096	146.409	-9.232	115.139	90.023	-9.169	-4.864	139.132	174.279	-4.976	-0.639	-0.156	4.204	107.025	3.503	-8191	255	
565.365	1	1	0	0	0.14907	0.18244	0.071595	0.11592	0.11325	0.16931	0.16497	0.33094	0.17783	0.11449	0.33574	0.22477	0.24819	0.23081	0.059886	0.18841	-2.9333	-2.9604	-2.9625	-3.4146	-3.0271	-3.1833	-3.3479	-3.0958	-3.5042	-3.0271	-3.0438	-3.3167	-3.0396	-3.2208	-3.1042	-3.0667	213.556	297.193	72.766	336.663	118.301	167.959	279.769	259.563	125.438	61.258	-5.749	-2.838	263.599	277.983	325.895	249.384	0.00095863	0.00054929	0.0003736	1525.5	7.0543e-06	4.173e-06	1523	405.92	5.5754e-06	4.1001e-06	461.71	152.09	134.22	45.755	5.9571e-06	56.313	0.00069419	0.00069999	0.00019516	1570.8	7.66e-06	7.7191e-06	1562.1	419.79	7.6639e-06	7.7814e-06	479.19	158.96	139.59	47.747	7.6921e-06	58.796	-20.459	-7.839	104.464	-9.180	126.704	137.567	-9.256	-4.632	185.458	199.538	-4.809	-0.386	-0.175	4.288	147.373	3.579	-8191	255	
565.461	1	1	0	0	0.10305	0.14144	0.044396	0.30224	0.10971	0.047197	0.090573	0.20189	0.053976	0.1088	0.11251	0.19537	0.18221	0.17938	0.10639	0.12	-2.7708	-3.0062	-2.7458	-3.7104	-2.7188	-2.9771	-3.6271	-2.9688	-3.3604	-3.1875	-3.1042	-3.5396	-3.0604	-3.0396	-3.2188	-2.9146	56.074	309.570	317.291	289.440	78.274	208.209	291.692	233.875	268.091	118.458	-2.804	-9.356	58.429	7.131	265.555	58.441	0.0012662	0.00057706	0.00016605	1528.7	8.1587e-07	7.3683e-06	1520.2	404.24	5.4194e-06	1.515e-06	461.31	153.07	134.25	45.782	2.8645e-06	55.707	0.00069662	0.00069976	0.00019414	1571.5	7.6171e-06	7.6875e-06	1563.6	419.21	7.6856e-06	7.6688e-06	478.55	159.17	139.47	47.842	7.6644e-06	58.683	336.258	0.356	67.074	-9.199	79.678	172.041	-9.257	-4.269	96.105	248.574	-4.853	-0.475	0.018	4.173	124.417	3.393	-8191	255	
565.557	1	1	0	0	0.31086	0.14102	0.090325	0.35182	0.015702	0.17649	0.033811	0.11585	0.16711	0.18218	0.27801	0.20579	0.21774	0.2767	0.1129	0.089707	-2.8063	-3.1021	-2.9292	-3.4292	-3.0271	-2.9813	-3.5229	-2.9021	-3.1917	-3.2021	-2.8812	-3.3583	-3.1625	-2.9771	-3.2271	-2.9437	293.063	71.120	248.873	291.824	77.680	330.266	72.983	331.673	85.314	122.775	245.819	235.866	323.839	276.920	93.122	266.798	0.00064362	0.00054667	0.00013942	1530.3	4.2261e-06	9.6189e-06	1519.6	407.29	8.0054e-06	6.6676e-06	466.1	153.35	135.09	45.772	6.7328e-06	56.163	0.00069896	0.00069587	0.00019365	1572.4	7.5929e-06	7.5995e-06	1561.2	419.74	7.5582e-06	7.6271e-06	479.4	159.28	139.72	47.791	7.556e-06	58.715	334.362	28.904	64.718	-9.263	42.329	93.133	-9.280	-4.610	322.551	116.338	-4.953	-0.316	-0.033	4.203	156.443	3.468	-8191	255	
565.676	1	1	0	0	0.013113	0.27797	0.16168	0.18819	0.19596	0.085374	0.12956	0.13011	0.1608	0.23469	0.18494	0.1436	0.37167	0.26225	0.15973	0.057448	-2.7042	-3.075	-2.7292	-3.4458	-3.0583	-2.8688	-3.5083	-3.125	-3.0312	-3.1271	-3.0917	-3.2708	-3.2729	-3.0396	-3.3792	-3.0125	94.155	32.889	235.396	291.936	203.718	279.571	201.217	202.341	196.285	29.128	265.636	310.314	22.046	250.865	316.576	301.653	0.0015958	0.00048359	0.00017466	1531.8	5.1632e-06	1.2565e-05	1531.1	406.81	9.152e-06	1.9759e-06	463.8	153	134.26	45.896	5.5557e-06	56.167	0.00068508	0.00069023	0.00019096	1571.4	7.5536e-06	7.614e-06	1561.7	419.82	7.5853e-06	7.55e-06	478.98	158.96	139.41	47.846	7.564e-06	58.636	329.672	15.399	54.934	-9.109	144.772	205.886	-9.447	-4.693	89.601	57.919	-5.190	-0.559	-0.060	4.076	148.507	3.587	-8191	255	
#DATA ENDS
