BOXY.EXE: ISS Imagent and Oximeter Data Acquisition Program Version 0.80
Ascii Record File

#ACQ INFORMATION
2  Detector Channels 
16  External MUX Channels 
1  Auxiliary Channels 
5000  Waveform (CCF) Frequency (Hz)
1  Waveforms Skipped 
30  Waveforms Averaged 
1  Cycles Averaged 
16  Acquisitions per Waveform 
10.0806  Updata Rate (Hz) 

#FILE INFORMATION
TRUE -- External MUX Channel results are PARSED.
FALSE -- AC DC and Phase are NOT grouped.
TRUE -- Companion Program Settings File CREATED.
FALSE -- AC data not excluded
FALSE -- DC data not excluded
FALSE -- Phase data not excluded
FALSE -- Auxillary Chn. data not excluded
Tab delimiters

#CALIBRATION STATE
TRUE -- Waveform Calibration Values APPLIED.


#AUX CALIBRATION VALUES
Val Type	aux-1	

Term	1.0000e+00	
Factor	0.0000e+00	


#WF CALIBRATION VALUES
A = Detector Channel
Val Type	A-AC1	A-AC2	A-AC3	A-AC4	A-AC5	A-AC6	A-AC7	A-AC8	A-AC9	A-AC10	A-AC11	A-AC12	A-AC13	A-AC14	A-AC15	A-AC16	A-DC1	A-DC2	A-DC3	A-DC4	A-DC5	A-DC6	A-DC7	A-DC8	A-DC9	A-DC10	A-DC11	A-DC12	A-DC13	A-DC14	A-DC15	A-DC16	A-Ph1	A-Ph2	A-Ph3	A-Ph4	A-Ph5	A-Ph6	A-Ph7	A-Ph8	A-Ph9	A-Ph10	A-Ph11	A-Ph12	A-Ph13	A-Ph14	A-Ph15	A-Ph16	

Term	0.00000e+00	0.00000e+00	0.00000e+00	0.00000e+00	0.00000e+00	0.00000e+00	0.00000e+00	0.00000e+00	0.00000e+00	0.00000e+00	0.00000e+00	0.00000e+00	0.00000e+00	0.00000e+00	0.00000e+00	0.00000e+00	0.00000e+00	0.00000e+00	0.00000e+00	0.00000e+00	0.00000e+00	0.00000e+00	0.00000e+00	0.00000e+00	0.00000e+00	0.00000e+00	0.00000e+00	0.00000e+00	0.00000e+00	0.00000e+00	0.00000e+00	0.00000e+00	0.00000e+00	0.00000e+00	0.00000e+00	0.00000e+00	0.00000e+00	0.00000e+00	0.00000e+00	0.00000e+00	0.00000e+00	0.00000e+00	0.00000e+00	0.00000e+00	0.00000e+00	0.00000e+00	0.00000e+00	0.00000e+00	
Factor	1.00000e+00	1.00000e+00	1.00000e+00	1.00000e+00	1.00000e+00	1.00000e+00	1.00000e+00	1.00000e+00	1.00000e+00	1.00000e+00	1.00000e+00	1.00000e+00	1.00000e+00	1.00000e+00	1.00000e+00	1.00000e+00	1.00000e+00	1.00000e+00	1.00000e+00	1.00000e+00	1.00000e+00	1.00000e+00	1.00000e+00	1.00000e+00	1.00000e+00	1.00000e+00	1.00000e+00	1.00000e+00	1.00000e+00	1.00000e+00	1.00000e+00	1.00000e+00	X	X	X	X	X	X	X	X	X	X	X	X	X	X	X	X	

B = Detector Channel
Val Type	B-AC1	B-AC2	B-AC3	B-AC4	B-AC5	B-AC6	B-AC7	B-AC8	B-AC9	B-AC10	B-AC11	B-AC12	B-AC13	B-AC14	B-AC15	B-AC16	B-DC1	B-DC2	B-DC3	B-DC4	B-DC5	B-DC6	B-DC7	B-DC8	B-DC9	B-DC10	B-DC11	B-DC12	B-DC13	B-DC14	B-DC15	B-DC16	B-Ph1	B-Ph2	B-Ph3	B-Ph4	B-Ph5	B-Ph6	B-Ph7	B-Ph8	B-Ph9	B-Ph10	B-Ph11	B-Ph12	B-Ph13	B-Ph14	B-Ph15	B-Ph16	

Term	0.00000e+00	0.00000e+00	0.00000e+00	0.00000e+00	0.00000e+00	0.00000e+00	0.00000e+00	0.00000e+00	0.00000e+00	0.00000e+00	0.00000e+00	0.00000e+00	0.00000e+00	0.00000e+00	0.00000e+00	0.00000e+00	0.00000e+00	0.00000e+00	0.00000e+00	0.00000e+00	0.00000e+00	0.00000e+00	0.00000e+00	0.00000e+00	0.00000e+00	0.00000e+00	0.00000e+00	0.00000e+00	0.00000e+00	0.00000e+00	0.00000e+00	0.00000e+00	7.91608e+01	-1.57426e+02	-1.25790e+02	-1.81071e+02	-1.33254e+02	-4.33174e+01	-1.58384e+02	-1.62015e+02	-9.85754e+01	-5.35677e+01	-1.74335e+02	-1.74194e+02	-1.80052e+02	-1.76373e+02	-8.84111e+01	-1.49596e+02	
Factor	7.28416e-05	1.18705e-04	3.43277e-05	1.55421e-01	1.40958e-06	1.37877e-06	1.77198e-01	4.90421e-02	1.73132e-06	1.35496e-06	9.21222e-02	3.70337e-02	2.12366e-02	8.91378e-03	1.18770e-06	1.32070e-02	1.01932e-06	1.04090e-06	2.89617e-07	7.87538e-02	1.13864e-08	1.14252e-08	8.37802e-02	2.48126e-02	1.13964e-08	1.14369e-08	4.41850e-02	1.75058e-02	1.07770e-02	4.46422e-03	1.14014e-08	6.34155e-03	X	X	X	X	X	X	X	X	X	X	X	X	X	X	X	X	



#DISTANCE SETTINGS
A = Detector Channel
A-1	A-2	A-3	A-4	A-5	A-6	A-7	A-8	A-9	A-10	A-11	A-12	A-13	A-14	A-15	A-16	

2.5000e+00	3.0000e+00	2.5000e+00	3.0000e+00	2.0000e+00	3.0000e+00	1.5000e+00	3.0000e+00	3.0000e+00	3.0000e+00	3.0000e+00	3.0000e+00	3.0000e+00	3.0000e+00	1.5000e+00	3.0000e+00	

B = Detector Channel
B-1	B-2	B-3	B-4	B-5	B-6	B-7	B-8	B-9	B-10	B-11	B-12	B-13	B-14	B-15	B-16	

1.0000e+01	1.0000e+01	1.0000e+01	1.4400e+00	1.0000e+01	1.0000e+01	1.5100e+00	1.9400e+00	1.0000e+01	1.0000e+01	1.9900e+00	2.4900e+00	2.4100e+00	2.9000e+00	1.0000e+01	2.9800e+00	




#DATA BEGINS
time	group	step	mark	flag	A-AC1	A-AC2	A-AC3	A-AC4	A-AC5	A-AC6	A-AC7	A-AC8	A-AC9	A-AC10	A-AC11	A-AC12	A-AC13	A-AC14	A-AC15	A-AC16	A-DC1	A-DC2	A-DC3	A-DC4	A-DC5	A-DC6	A-DC7	A-DC8	A-DC9	A-DC10	A-DC11	A-DC12	A-DC13	A-DC14	A-DC15	A-DC16	A-Ph1	A-Ph2	A-Ph3	A-Ph4	A-Ph5	A-Ph6	A-Ph7	A-Ph8	A-Ph9	A-Ph10	A-Ph11	A-Ph12	A-Ph13	A-Ph14	A-Ph15	A-Ph16	B-AC1	B-AC2	B-AC3	B-AC4	B-AC5	B-AC6	B-AC7	B-AC8	B-AC9	B-AC10	B-AC11	B-AC12	B-AC13	B-AC14	B-AC15	B-AC16	B-DC1	B-DC2	B-DC3	B-DC4	B-DC5	B-DC6	B-DC7	B-DC8	B-DC9	B-DC10	B-DC11	B-DC12	B-DC13	B-DC14	B-DC15	B-DC16	B-Ph1	B-Ph2	B-Ph3	B-Ph4	B-Ph5	B-Ph6	B-Ph7	B-Ph8	B-Ph9	B-Ph10	B-Ph11	B-Ph12	B-Ph13	B-Ph14	B-Ph15	B-Ph16	aux-1	digaux	

519.124	1	1	0	768	0.075175	0.21352	0.058768	0.13922	0.16903	0.20673	0.11118	0.07174	0.25713	0.15599	0.34105	0.078331	0.33083	0.047409	0.21622	0.057676	-2.7667	-2.8521	-3.1625	-3.1521	-3.2792	-3.2708	-3.0438	-3.4792	-3.0917	-2.9813	-3.2521	-3.1083	-3.25	-3.3271	-2.9917	-3.2479	220.197	273.641	-0.947	283.698	166.158	76.535	26.936	305.652	321.653	98.359	333.207	68.105	230.821	119.754	146.515	311.942	0.00083815	0.00035729	8.1433e-05	1359.7	6.4536e-06	6.8669e-06	1361.2	367.02	2.8682e-06	6.7385e-06	417.8	140.16	121.77	41.79	4.8802e-06	51.527	0.00057658	0.00057661	0.00015928	1379.8	6.2761e-06	6.2845e-06	1379.4	374.27	6.2746e-06	6.2731e-06	426.74	143.44	124.52	42.97	6.214e-06	53.188	-9.353	46.569	50.839	-10.044	17.381	141.339	-10.357	-5.626	74.058	187.483	-6.232	-1.629	-1.041	3.177	125.032	2.086	-8191	255	
519.220	1	1	0	0	0.16279	0.10364	0.12978	0.3469	0.17154	0.21328	0.30712	0.2108	0.12989	0.26964	0.075304	0.13163	0.2613	0.090977	0.093884	0.14107	-2.7521	-2.7417	-3.3521	-3.2792	-3.15	-3.4562	-3.1771	-3.4771	-3.2271	-2.8812	-3.4417	-3.2208	-3.05	-3.2417	-2.7396	-3.3271	97.471	189.259	252.256	310.405	48.143	225.001	31.591	270.851	-21.679	121.427	250.051	45.377	24.206	247.028	306.581	215.218	0.00068664	0.00044098	0.00011871	1354.7	7.5274e-06	6.8366e-06	1359.2	367.62	1.0426e-05	6.5142e-06	416.19	139.44	121.5	41.542	3.8218e-06	51.679	0.00057329	0.00056879	0.00015762	1378.7	6.2722e-06	6.2413e-06	1379	374.93	6.2729e-06	6.275e-06	427.06	143.28	124.63	42.928	6.2481e-06	53.246	-21.250	2.236	55.269	-10.199	95.160	296.125	-10.450	-5.571	100.365	81.752	-6.020	-1.637	-1.018	3.365	230.189	2.350	-8191	255	
519.316	1	1	0	0	0.098947	0.17263	0.27007	0.3613	0.084173	0.26795	0.14029	0.25684	0.15793	0.096711	0.33823	0.019464	0.2228	0.1028	0.39325	0.39772	-2.8438	-2.85	-3.225	-3.1458	-3.0563	-3.3708	-3.0833	-3.2417	-3.1375	-2.925	-3.2438	-3.1854	-3.1	-3.4062	-2.9375	-3.2771	15.609	276.587	308.762	-10.285	278.856	17.030	301.839	273.304	219.358	75.313	105.610	333.322	321.840	34.137	74.683	328.888	0.00083351	0.0003975	9.3733e-05	1356	3.3689e-07	4.1944e-06	1360	367.47	5.3585e-06	4.9345e-06	418.36	140.02	121.16	41.697	4.9451e-06	51.479	0.00057266	0.00056648	0.00016016	1379.1	6.2404e-06	6.2419e-06	1378.7	374.6	6.2599e-06	6.2452e-06	427.74	143.37	124.39	42.998	6.2356e-06	53.183	-4.845	61.097	82.383	-10.105	44.697	155.938	-10.401	-5.312	107.501	48.607	-6.213	-1.302	-0.987	3.112	114.798	2.361	-8191	255	
519.412	1	1	0	0	0.24236	0.11802	0.068768	0.18349	0.07027	0.067803	0.16909	0.1582	0.15683	0.19885	0.10128	0.07969	0.093008	0.18434	0.070424	0.040199	-2.9375	-2.8833	-3.1792	-3.2792	-2.6688	-3.4083	-3.2062	-3.2438	-3.2604	-2.9896	-3.2542	-3.3083	-2.825	-3.2458	-2.9437	-3.1354	237.869	284.682	89.290	299.508	142.032	152.579	181.314	-1.471	326.099	212.729	252.867	108.492	88.171	194.678	121.863	323.993	0.0010284	0.00020846	0.00025539	1360.4	5.1089e-06	7.4699e-06	1358.2	368.41	8.8963e-06	1.128e-05	418.64	139.27	121.71	41.719	1.6992e-06	51.431	0.00057202	0.00056785	0.00015904	1381.6	6.2779e-06	6.196e-06	1379.7	375.12	6.2716e-06	6.2663e-06	427.95	143.17	124.54	42.979	6.2388e-06	53.216	-17.593	257.740	71.888	-10.352	122.679	97.979	-10.406	-5.464	116.837	104.116	-6.282	-1.470	-0.963	3.249	243.097	2.570	-8191	255	
519.508	1	1	0	0	0.062924	0.14143	0.15168	0.32819	0.18081	0.16219	0.13189	0.12373	0.128	0.12167	0.11284	0.12335	0.20176	0.28323	0.13608	0.15136	-3.0708	-2.9396	-3.1167	-3.5125	-2.675	-3.3312	-3.0792	-3.175	-3.4646	-2.875	-3.2229	-3.3958	-2.9958	-3.3396	-3.05	-2.8708	32.716	103.869	313.521	312.492	94.471	173.884	-22.515	276.051	111.735	174.279	209.616	1.724	-10.689	290.886	234.014	122.921	0.00099024	0.00039352	4.7174e-05	1360.3	3.6448e-06	8.9713e-06	1360.9	366.34	4.6426e-06	2.755e-06	419.84	140.44	120.73	41.646	5.8318e-06	51.604	0.00057088	0.00056849	0.00015849	1381.7	6.2675e-06	6.2158e-06	1379	374.56	6.2085e-06	6.2824e-06	428.16	143.6	124.43	42.985	6.2264e-06	53.283	2.431	31.678	318.608	-10.317	-11.436	199.062	-10.516	-5.434	43.623	6.096	-6.207	-1.570	-1.131	3.232	111.064	2.704	-8191	255	
519.605	1	1	0	0	0.1401	0.10246	0.17228	0.18343	0.12576	0.09568	0.094078	0.22792	0.20543	0.17814	0.043219	0.096931	0.25835	0.43117	0.19402	0.21396	-3.0312	-2.8021	-2.8917	-3.45	-2.9	-3.3	-3.2896	-3.0438	-3.275	-3.1083	-3.2396	-3.2875	-3	-3.3208	-3.0667	-2.9417	237.158	220.427	144.197	306.100	255.740	308.941	301.595	330.558	183.678	162.831	21.870	169.024	57.886	293.647	23.828	8.285	0.00041252	0.0007936	0.00022993	1357.8	4.6801e-06	2.5808e-06	1357.1	367.03	5.27e-06	6.2986e-06	418.29	140.28	121.56	41.755	2.3411e-06	51.554	0.00057166	0.00056871	0.0001597	1380.5	6.2346e-06	6.2715e-06	1379.1	374.71	6.1477e-06	6.1603e-06	427.7	143.49	124.54	42.945	6.2177e-06	53.186	-0.281	73.297	53.095	-10.360	3.068	326.952	-10.469	-5.490	85.589	187.904	-6.347	-1.536	-1.173	3.230	162.281	2.652	-8191	255	
519.725	1	1	0	0	0.17929	0.15078	0.14121	0.25951	0.21069	0.04722	0.37974	0.18436	0.26239	0.11228	0.13327	0.19174	0.21656	0.13938	0.08303	0.33309	-3.1167	-3.025	-2.9813	-3.5396	-2.8542	-3.2479	-3.3187	-2.9396	-3.2938	-3.0229	-3.1042	-3.2542	-2.6958	-3.3771	-3.1479	-2.8833	188.460	215.389	77.495	268.112	32.717	129.516	326.873	283.749	275.076	141.882	40.170	-16.559	334.377	246.656	128.488	293.016	0.00087831	0.0007773	0.00012713	1355.8	5.2979e-06	3.31e-06	1358.5	366.65	3.3737e-06	5.3046e-06	417.55	140.06	120.87	41.77	3.1542e-06	51.692	0.00056954	0.00056816	0.00015872	1379	6.2317e-06	6.2191e-06	1380	374.27	6.1428e-06	6.1628e-06	426.99	143.05	124.36	42.999	6.0502e-06	53.202	-23.372	34.046	311.009	-10.290	117.565	143.319	-10.428	-5.418	-5.815	180.815	-5.867	-1.847	-1.141	3.309	66.348	2.554	-8191	255	
519.820	1	1	0	0	0.039049	0.27191	0.047571	0.18456	0.029367	0.070305	0.27159	0.10382	0.033975	0.13666	0.54273	0.18007	0.1496	0.23765	0.13683	0.25508	-2.8917	-2.9646	-2.8937	-3.6021	-2.9042	-3.0438	-3.3771	-2.9833	-3.1562	-3.1104	-2.8604	-3.3083	-3.0229	-3.2188	-3.2979	-3.0187	101.054	115.811	144.049	285.476	158.811	218.511	254.544	280.942	177.656	131.858	-13.368	200.261	294.613	315.223	1.629	302.939	0.00089857	0.00077731	0.00015872	1355.6	2.8268e-06	9.5488e-06	1357.8	366.25	8.3466e-06	2.342e-06	417.13	140.6	120.61	41.809	1.5771e-06	51.716	0.00055179	0.00055685	0.00015506	1378.7	6.1108e-06	6.1176e-06	1380.5	374.07	6.0998e-06	6.1233e-06	427.34	143.57	124.31	42.971	6.025e-06	53.185	-15.008	51.624	45.945	-10.209	291.828	168.953	-10.370	-5.351	109.924	165.263	-6.179	-1.559	-1.178	3.488	314.222	2.575	-8191	255	
519.916	1	1	0	0	0.11112	0.066341	0.17805	0.072926	0.18033	0.1464	0.063643	0.41346	0.07914	0.1892	0.037979	0.11934	0.45909	0.14069	0.08607	0.04401	-2.7646	-2.9667	-2.7146	-3.6188	-2.9938	-3.1813	-3.5896	-2.9896	-3.2396	-3.2646	-2.9542	-3.4604	-2.975	-3.1333	-3.175	-3.0604	214.552	248.305	61.625	20.658	301.896	116.836	270.730	273.074	218.555	293.017	92.779	235.992	301.618	165.297	306.322	69.131	0.00070272	0.00085074	0.00016676	1355.5	1.7107e-06	5.4296e-06	1355.2	367.89	6.5947e-06	4.4484e-06	415.87	139.77	121.56	41.69	6.2123e-06	51.785	0.00055537	0.0005517	0.00015404	1379.8	6.0921e-06	6.1275e-06	1378.1	375.07	6.1574e-06	6.169e-06	427.19	143.26	124.58	42.95	6.0828e-06	53.253	9.122	43.198	93.237	-10.332	330.494	93.262	-10.313	-5.445	46.409	209.842	-6.080	-1.513	-0.998	3.408	94.196	2.693	-8191	255	
520.012	1	1	0	0	0.18328	0.076877	0.096977	0.36595	0.082792	0.11588	0.47592	0.10526	0.161	0.2443	0.097215	0.12777	0.162	0.067086	0.10923	0.048458	-2.6771	-3.0771	-2.8312	-3.525	-2.9708	-3.0208	-3.4688	-2.9833	-3.1292	-3.2313	-2.9313	-3.4604	-3.175	-3.1437	-3.3688	-3.1521	185.110	84.885	235.573	296.665	14.576	175.629	315.094	294.193	6.537	316.439	48.832	282.409	335.173	-3.100	-4.401	0.369	0.00096459	0.00051153	7.6606e-05	1360.5	5.2973e-06	5.531e-06	1361	367.93	7.0982e-06	6.6337e-06	416.96	139.42	121.3	41.584	2.209e-06	51.549	0.00055958	0.00055935	0.00015549	1379.4	6.127e-06	6.1506e-06	1379.2	374.64	6.172e-06	6.2092e-06	427.59	143.31	124.68	42.938	6.2158e-06	53.208	-8.479	71.316	112.447	-10.125	114.744	268.404	-10.428	-5.589	224.538	161.598	-5.892	-1.504	-0.989	3.353	93.112	2.313	-8191	255	
520.108	1	1	0	0	0.31965	0.11876	0.17035	0.23832	0.21004	0.052118	0.22453	0.19252	0.28823	0.20168	0.22375	0.12374	0.26689	0.21865	0.11138	0.076367	-2.7375	-3.275	-2.8146	-3.3979	-3.2125	-2.9792	-3.5229	-2.9292	-3.1437	-3.3688	-2.9667	-3.3521	-3.2417	-3.0687	-3.1688	-3.0333	325.023	280.546	134.823	-3.087	66.321	222.284	280.537	250.013	52.610	315.110	0.180	-19.967	7.172	323.173	127.871	160.985	0.0013847	0.00057857	3.7724e-05	1356.4	4.3672e-06	2.2484e-06	1354.2	367.49	5.6355e-06	6.3327e-06	418.4	139.72	121.54	41.625	5.2521e-06	51.603	0.00057584	0.00056653	0.00015818	1378.7	6.2207e-06	6.2106e-06	1378.7	374.5	6.2069e-06	6.1864e-06	428.36	143.33	124.71	42.954	6.2124e-06	53.228	333.727	18.546	85.452	-10.039	60.579	208.910	-10.386	-5.551	146.945	53.724	-6.200	-1.460	-1.079	3.373	69.968	2.217	-8191	255	
520.204	1	1	0	0	0.2474	0.073216	0.11268	0.21926	0.17333	0.25981	0.21839	0.25413	0.12006	0.11598	0.28157	0.23664	0.1346	0.23088	0.13592	0.35403	-2.7271	-3.35	-2.7313	-3.4271	-3.225	-2.7375	-3.45	-3.1146	-2.9417	-3.325	-2.9188	-3.2708	-3.0417	-3.0271	-3.2104	-3.2021	214.865	54.545	106.446	219.615	13.329	130.338	-15.309	253.170	208.039	56.776	198.102	327.572	125.540	-16.430	274.648	278.951	0.0010036	0.00045176	0.00015387	1356.3	3.2787e-06	4.4273e-06	1355.1	367.02	5.6457e-06	4.5077e-06	419.36	140.1	121.59	41.779	1.5485e-06	51.847	0.00057798	0.00057062	0.00016009	1378.9	6.2944e-06	6.2144e-06	1379.4	374.98	6.2867e-06	6.2994e-06	428.07	143.59	124.72	43.025	6.2848e-06	53.363	327.254	7.293	68.257	-10.314	142.599	167.518	-10.319	-5.531	207.480	149.893	-6.221	-1.601	-1.234	3.341	95.234	2.287	-8191	255	
520.325	1	1	0	0	0.081266	0.12338	0.064642	0.16667	0.19274	0.31197	0.15562	0.45997	0.03992	0.17399	0.15056	0.36293	0.17412	0.14721	0.11819	0.13904	-2.6167	-3.2583	-2.8708	-3.3542	-2.9792	-2.8563	-3.4208	-3.225	-2.9562	-3.3312	-2.8312	-3.125	-3.35	-2.8063	-3.4083	-3.1708	52.137	98.900	314.884	94.071	271.170	309.191	285.192	306.363	59.848	331.733	96.829	-14.033	309.617	254.144	282.178	8.512	0.0010166	0.00013464	0.00019084	1357.7	6.3614e-06	3.4812e-06	1359.9	367.11	3.5469e-06	8.0042e-06	417.76	140.91	121.85	41.673	1.4152e-06	51.626	0.00057777	0.00057445	0.00016019	1382.4	6.2745e-06	6.291e-06	1381.9	375.08	6.3274e-06	6.3065e-06	428.53	144.04	124.94	43.035	6.3181e-06	53.365	332.303	75.853	55.584	-10.225	47.640	225.918	-10.420	-5.423	85.715	142.745	-6.342	-1.422	-1.302	3.494	160.150	2.462	-8191	255	
520.421	1	1	0	0	0.095084	0.10209	0.27848	0.21294	0.093828	0.1773	0.30034	0.1232	0.07974	0.41665	0.16229	0.06956	0.12871	0.15067	0.10179	0.061327	-2.6646	-3.2812	-2.9354	-3.1604	-3.1521	-2.9917	-3.4458	-3.2125	-2.8667	-3.3312	-3.0208	-3.2167	-3.5042	-2.9188	-3.2188	-3.2771	322.797	45.569	93.929	294.397	108.493	158.131	300.695	42.122	282.643	132.820	315.930	41.802	9.395	-2.239	291.109	176.763	0.0011233	0.00078389	0.00016611	1363.9	3.0087e-06	2.3058e-06	1364.6	367.99	8.2241e-06	4.5584e-06	420.26	139.76	122	41.884	5.953e-06	51.968	0.00058486	0.00058249	0.00016392	1386.5	6.4614e-06	6.4388e-06	1386.6	376.24	6.5468e-06	6.4893e-06	430.05	144.19	125.17	43.182	6.3981e-06	53.555	-16.593	320.518	31.707	-10.342	168.806	149.453	-10.381	-5.434	138.455	85.073	-5.949	-1.599	-1.014	3.494	36.963	2.446	-8191	255	
520.517	1	1	0	0	0.19319	0.084688	0.2498	0.21557	0.27936	0.1482	0.12624	0.21941	0.11893	0.10193	0.27066	0.11658	0.19237	0.2392	0.27426	0.16683	-2.4875	-3.2125	-3.0479	-3.1292	-3.3187	-2.7646	-3.2792	-3.2021	-2.8208	-3.1979	-3.1583	-2.8833	-3.5104	-3.0917	-3.1021	-3.2208	144.415	197.569	54.105	1.244	118.422	142.450	262.802	292.592	251.977	59.029	271.496	323.228	142.777	-10.130	282.223	301.879	0.0012685	0.00030753	0.00011864	1367.6	9.7303e-06	4.1004e-06	1370.2	366.84	5.0186e-06	3.5606e-06	420.22	140.8	122.53	41.917	1.1028e-05	51.885	0.0005892	0.0005839	0.00016266	1394.1	6.4476e-06	6.4536e-06	1392.9	375.93	6.4607e-06	6.5318e-06	430.65	144.71	125.53	43.372	6.6816e-06	53.714	335.780	27.258	65.509	-10.068	131.917	110.355	-10.226	-5.577	107.575	142.619	-6.156	-1.376	-1.102	3.237	130.347	2.477	-8191	255	
520.613	1	1	0	0	0.16376	0.15699	0.27569	0.39092	0.052686	0.23424	0.17214	0.26724	0.10388	0.25442	0.17553	0.30848	0.15857	0.03096	0.14794	0.14577	-2.4792	-3.1312	-2.8333	-3.0542	-3.3417	-2.9208	-3.2083	-3.2729	-2.7167	-3.0812	-3.1333	-2.8688	-3.1604	-2.8521	-3.0458	-3.3167	-20.935	30.779	22.626	323.785	152.448	-17.683	-17.458	273.846	-13.109	26.242	243.772	283.876	7.345	69.080	222.476	287.669	0.0011188	0.00066651	0.00036213	1370.4	9.2591e-06	6.1348e-06	1367.4	367.7	9.7211e-06	4.1814e-06	422.3	141.34	122.35	42.105	4.4517e-06	52.158	0.00061721	0.00061833	0.00017292	1396.5	6.862e-06	6.8893e-06	1397.2	377.28	6.8898e-06	6.875e-06	433.62	145.25	126.03	43.508	6.8199e-06	53.938	330.279	22.673	86.522	-10.176	45.705	92.694	-10.308	-5.616	117.176	90.432	-6.201	-1.528	-1.066	3.275	60.165	2.670	-8191	255	
520.685	1	1	0	0	0.14434	0.24629	0.2742	0.12482	0.13401	0.19541	0.17285	0.056932	0.13172	0.088685	0.32891	0.056804	0.27894	0.21308	0.09955	0.25633	-2.2854	-3.2667	-2.8563	-3.0896	-3.3125	-3.1688	-3.1625	-3.5	-2.8396	-3.1271	-3.2771	-3.0187	-3.3937	-3.0375	-2.9271	-3.3167	111.630	66.963	6.271	279.980	209.528	65.341	254.379	6.721	325.010	-11.427	307.085	304.363	331.665	295.322	41.518	284.367	0.0009453	0.00039774	0.0001063	1374.1	3.8005e-06	1.3862e-05	1376.7	370.81	3.1013e-06	3.3078e-06	421.24	140.75	123.25	42.156	6.7052e-06	52.096	0.00062537	0.00062549	0.00017379	1402.4	6.9302e-06	6.953e-06	1404	379.28	7.0504e-06	7.107e-06	435.27	146.2	126.77	43.746	7.1864e-06	54.175	15.825	29.641	42.507	-10.458	93.262	177.908	-10.323	-5.595	69.515	92.808	-6.181	-1.581	-0.881	3.252	109.900	2.484	-8191	255	
520.804	1	1	0	0	0.061222	0.2007	0.14547	0.37675	0.15617	0.064149	0.23228	0.27568	0.051287	0.13054	0.12453	0.1149	0.41708	0.095713	0.29905	0.14352	-2.4562	-3.1104	-3.2625	-3.0646	-3.3229	-3.0187	-3.2062	-3.4583	-2.9083	-3.0583	-3.3542	-3.0396	-3.3792	-3.225	-2.8063	-3.4833	217.445	282.202	319.346	288.606	153.303	65.339	299.438	206.701	29.532	179.660	6.765	303.932	301.358	285.202	131.188	285.643	0.001329	9.6665e-05	0.00019399	1379.2	3.1521e-06	1.1728e-05	1386.9	370.72	5.2529e-06	7.621e-06	423.97	142.35	123.4	42.162	3.7881e-06	52.064	0.00065428	0.00066014	0.00018442	1411	7.2765e-06	7.2553e-06	1413	380.33	7.2719e-06	7.2494e-06	437.96	147.04	127.32	43.947	7.1502e-06	54.396	331.060	220.580	75.483	-10.398	172.299	60.226	-10.446	-5.661	127.010	127.850	-6.021	-1.578	-1.110	3.310	209.749	2.169	-8191	255	
520.900	1	1	0	0	0.24137	0.12008	0.19592	0.24771	0.21975	0.17643	0.059638	0.24548	0.15896	0.040554	0.047387	0.28118	0.21241	0.24429	0.071167	0.23843	-2.5938	-3.0104	-3.2854	-2.9875	-3.1708	-2.9979	-3.1437	-3.4813	-2.7542	-3.1417	-3.5271	-2.8438	-3.3083	-3.2208	-2.8521	-3.2625	60.139	6.484	136.890	310.379	33.712	55.727	223.193	268.977	176.450	48.801	215.968	324.431	310.411	320.191	331.623	259.040	0.00088449	0.0010344	0.00015785	1385.7	9.0931e-06	8.9729e-06	1388.5	371.89	6.9812e-06	5.4988e-06	425.46	142.82	123.61	42.319	4.9774e-06	52.396	0.00065023	0.00065472	0.00018176	1417.6	7.176e-06	7.1857e-06	1417.8	381.5	7.1749e-06	7.1938e-06	438.98	147.51	127.7	44.039	7.1242e-06	54.569	-23.361	40.823	36.581	-10.293	21.873	135.577	-10.408	-5.577	101.874	49.205	-6.162	-1.213	-1.193	3.281	166.729	2.401	-8191	255	
520.996	1	1	0	0	0.22936	0.068992	0.10738	0.058221	0.05164	0.29682	0.21486	0.28641	0.1637	0.082369	0.19114	0.24451	0.24322	0.31375	0.20995	0.18537	-2.6604	-2.9854	-3.1604	-3.1396	-3.2062	-3.2458	-2.9729	-3.4188	-3.0771	-3.1167	-3.4854	-2.9708	-3.2021	-3.3792	-2.6667	-3.4083	43.378	172.250	-22.886	-8.730	135.566	90.434	298.008	276.805	213.109	26.918	312.983	-11.463	328.462	255.914	296.188	2.046	0.0012176	0.00068222	0.00014573	1395.4	1.3785e-05	1.4119e-05	1394.3	372.33	9.8096e-06	1.9357e-06	427.02	142.21	124.15	42.367	5.2677e-06	52.644	0.00064977	0.00065751	0.00018171	1422.9	7.2322e-06	7.1814e-06	1423.1	381.88	7.2321e-06	7.2568e-06	439.49	147.51	128.14	44.081	7.1288e-06	54.738	331.444	61.145	158.565	-10.164	59.506	155.911	-10.309	-5.612	117.958	197.131	-6.063	-1.706	-1.241	3.288	129.619	2.295	-8191	255	
521.117	1	1	0	0	0.11101	0.095574	0.16636	0.16067	0.15848	0.12307	0.35619	0.32259	0.13375	0.13009	0.252	0.16394	0.070486	0.068797	0.078234	0.27343	-2.7104	-3.0167	-3.3042	-3.1979	-3.1167	-3.2542	-2.9604	-3.3875	-3.0542	-3.05	-3.4667	-2.9792	-3.1562	-3.2271	-2.8563	-3.2396	117.364	281.897	160.982	275.806	112.908	193.578	267.102	322.615	303.495	281.264	201.918	5.439	46.453	155.802	203.107	305.268	0.00095496	0.00032074	6.7558e-05	1401.4	1.0208e-05	5.7207e-06	1399.8	371.27	9.4393e-06	5.2977e-06	426.59	142.63	124.29	42.538	4.215e-06	52.319	0.00065832	0.00065784	0.00018104	1428.2	7.1995e-06	7.1739e-06	1424.3	382	7.2373e-06	7.1836e-06	440.04	147.56	128.17	44.122	7.1534e-06	54.689	-21.410	50.747	78.446	-10.168	153.245	165.211	-10.406	-5.537	78.873	136.834	-6.182	-1.539	-1.086	3.088	156.866	2.472	-8191	255	
521.213	1	1	0	0	0.218	0.29117	0.087126	0.18481	0.27458	0.22824	0.13747	0.26504	0.23616	0.22144	0.19712	0.22703	0.21993	0.12613	0.25571	0.33557	-2.7188	-2.8208	-3.2687	-3.1188	-3.1458	-3.4396	-3.1937	-3.2125	-3.1208	-2.8771	-3.525	-3.0021	-3.0938	-3.4771	-2.8396	-3.2917	230.999	94.824	176.145	260.379	77.382	268.269	124.416	4.102	182.031	287.048	129.047	-22.153	299.433	283.789	42.497	281.735	0.0011059	0.0005946	9.912e-05	1395.5	3.7524e-06	1.7447e-06	1394.7	372.1	5.1439e-06	8.1037e-07	427.95	142.75	123.73	42.442	2.7714e-06	52.64	0.00065857	0.00066515	0.00018564	1426.6	7.308e-06	7.3217e-06	1424.7	382.47	7.4277e-06	7.4462e-06	441.07	147.97	128.09	44.253	7.4665e-06	54.797	-18.435	217.443	80.198	-10.232	14.100	33.746	-10.247	-5.464	110.888	129.340	-6.213	-1.715	-1.133	3.350	164.085	2.610	-8191	255	
521.285	1	1	0	0	0.11847	0.13992	0.061384	0.16314	0.095465	0.34035	0.22597	0.31186	0.16157	0.084094	0.3032	0.048964	0.10798	0.19889	0.1336	0.28113	-2.6208	-2.7229	-3.2208	-3.2625	-3.025	-3.3708	-3.2167	-3.2667	-3.3104	-3.0125	-3.3812	-2.9292	-2.8896	-3.5312	-2.725	-3.2646	140.939	214.358	196.409	2.670	213.994	257.649	260.231	249.950	201.058	108.533	270.116	304.682	334.133	60.757	120.864	292.866	0.00084766	0.00040387	0.00023069	1398.5	6.8653e-06	7.6056e-06	1399.5	373.24	2.0647e-06	4.5899e-06	427.32	142.51	123.87	42.461	4.894e-06	52.396	0.00067994	0.00067926	0.00018899	1428.4	7.5026e-06	7.462e-06	1426.9	382.83	7.4723e-06	7.4713e-06	441.45	147.95	128.19	44.241	7.4356e-06	54.84	-6.399	68.473	62.516	-10.364	179.533	139.544	-10.288	-5.564	5.666	124.484	-5.898	-1.658	-1.306	3.315	66.269	2.423	-8191	255	
521.405	1	1	0	0	0.1436	0.086297	0.12922	0.057065	0.16253	0.08488	0.23625	0.23423	0.22554	0.085564	0.23313	0.13555	0.2342	0.39976	0.14432	0.13093	-2.9	-3.0125	-3.1521	-3.1708	-2.9021	-3.3792	-3.0979	-3.1146	-3.2979	-2.7604	-3.3125	-3.2292	-2.9562	-3.4292	-3.1083	-3.1229	180.288	56.491	260.279	267.537	162.682	-13.403	304.829	289.836	235.382	277.472	285.828	99.554	335.970	280.339	155.035	125.951	0.0011569	0.00079023	0.00018247	1397.3	8.0794e-06	2.8273e-06	1396.6	372.36	1.0164e-05	9.6271e-06	427.66	142.41	124.01	42.514	1.632e-06	52.711	0.00068521	0.00068459	0.00019167	1428.1	7.5169e-06	7.4851e-06	1427.5	382.67	7.5092e-06	7.4279e-06	441.07	147.98	128.24	44.295	7.4702e-06	54.904	-20.892	19.107	64.798	-10.041	76.969	80.172	-10.456	-5.477	118.736	110.408	-6.029	-1.683	-1.032	3.396	109.357	2.572	-8191	255	
521.501	1	1	0	0	0.21909	0.18739	0.14657	0.22295	0.12962	0.17668	0.13679	0.32515	0.1976	0.029371	0.20672	0.087847	0.16181	0.12511	0.27881	0.030178	-2.7125	-2.6479	-3.2188	-3.2687	-2.8458	-3.2	-3.075	-3.1354	-3.2771	-2.7458	-3.2375	-3.0854	-2.9271	-3.5187	-2.9417	-3.0417	218.985	32.954	31.590	28.303	270.217	299.520	316.875	266.569	143.644	148.980	278.875	299.945	26.839	256.873	197.997	295.934	0.00089223	0.00058259	0.0002103	1397.4	4.3776e-06	1.1909e-05	1394.8	372.87	3.7035e-06	7.8849e-06	425.67	142.37	124.05	42.552	7.4437e-06	52.433	0.00068097	0.00068743	0.00019222	1429.5	7.4958e-06	7.5073e-06	1428.1	382.78	7.4903e-06	7.5027e-06	441.09	147.86	128.38	44.305	7.4629e-06	54.805	1.291	56.236	92.607	-10.300	86.152	124.680	-10.307	-5.476	254.009	199.681	-6.151	-1.496	-1.230	3.281	98.855	2.443	-8191	255	
521.598	1	1	0	0	0.15216	0.35024	0.19256	0.14108	0.17768	0.10085	0.20897	0.07427	0.20582	0.13054	0.10777	0.14142	0.27633	0.23157	0.064243	0.30767	-2.9938	-2.9083	-3.1625	-3.3646	-2.9583	-3.1458	-3.2104	-3.0417	-3.2958	-2.7917	-3.1042	-3.325	-2.9188	-3.2646	-3.0604	-2.9625	180.017	277.034	287.349	-7.659	115.154	124.038	-1.338	276.101	188.251	320.263	135.825	300.095	-15.035	2.412	178.617	4.297	0.0010386	7.4636e-05	0.00013067	1398.8	2.8542e-06	1.0659e-05	1397.3	373.82	7.8497e-06	5.3987e-06	428.63	143.16	124.28	42.483	6.15e-06	52.661	0.00068096	0.00067933	0.00019007	1429.6	7.4069e-06	7.4808e-06	1428.2	383.21	7.4657e-06	7.4673e-06	441.91	148.23	128.39	44.248	7.4478e-06	54.915	322.141	302.505	50.743	-10.428	89.563	153.346	-10.372	-5.552	124.887	73.498	-6.242	-1.692	-0.976	3.023	187.192	2.625	-8191	255	
521.718	1	1	0	0	0.040588	0.14056	0.094054	0.11769	0.22653	0.084823	0.33633	0.35585	0.18069	0.17429	0.3634	0.080703	0.11871	0.13764	0.31042	0.19193	-2.9188	-2.8792	-2.975	-3.3417	-2.7875	-3.3042	-3.2938	-3	-3.3229	-2.9125	-2.9542	-3.375	-2.8646	-3.4229	-3.1042	-3.0083	19.468	134.960	59.488	237.406	171.419	4.777	240.987	291.979	92.224	141.428	283.131	4.377	232.155	280.327	94.666	-19.818	0.00078314	0.00052654	0.00014441	1402	3.0149e-06	2.6553e-06	1396.8	373.17	6.7447e-06	5.3605e-06	428.92	142.75	123.58	42.489	6.4102e-06	52.607	0.00068434	0.00068674	0.00019086	1430.6	7.5036e-06	7.5529e-06	1429.1	383.48	7.5277e-06	7.5347e-06	441.97	147.78	128.05	44.289	7.5011e-06	54.865	-1.664	34.685	71.543	-10.384	139.821	113.370	-9.987	-5.483	125.723	221.619	-6.062	-1.578	-0.922	3.428	121.657	2.772	-8191	255	
521.813	1	1	0	0	0.01901	0.25936	0.12157	0.07879	0.065485	0.095076	0.10816	0.35233	0.17769	0.17036	0.14979	0.17041	0.17145	0.15892	0.13457	0.23534	-2.7438	-2.8563	-2.9229	-3.4813	-2.8042	-2.9979	-3.2938	-2.9813	-3.2021	-3.0438	-2.9667	-3.15	-2.9	-3.1292	-3.2021	-2.8458	104.077	28.687	102.972	277.372	222.038	324.184	294.768	281.930	147.840	157.996	216.513	310.993	261.830	-20.450	214.922	330.386	0.00088385	0.00026131	0.00011499	1396.6	2.4958e-06	7.013e-06	1397.2	373.36	4.4859e-06	6.4905e-06	429.33	143.25	124.05	42.437	8.0009e-06	52.39	0.00067865	0.00068629	0.00019126	1429.4	7.4506e-06	7.4775e-06	1425.6	383.84	7.5049e-06	7.4645e-06	441.94	148.01	128.21	44.261	7.4332e-06	54.696	333.449	168.224	55.384	-10.396	124.310	93.593	-10.470	-5.501	155.819	146.893	-6.192	-1.548	-1.020	3.140	73.047	2.567	-8191	255	
521.909	1	1	0	0	0.1067	0.20325	0.14255	0.14565	0.21617	0.26227	0.13145	0.20973	0.076562	0.058485	0.2483	0.28354	0.3347	0.27319	0.11008	0.17937	-2.7917	-2.8833	-2.7687	-3.4208	-2.9667	-3.1312	-3.3458	-2.9	-3.0583	-3.0542	-2.9562	-3.3479	-2.9875	-3.0563	-3.1854	-2.8417	154.103	115.655	287.315	301.066	240.968	23.982	-12.231	201.269	175.703	55.083	28.047	330.905	288.359	-5.688	307.600	305.681	0.0010646	0.00070906	7.9087e-05	1396.9	4.6619e-06	5.2493e-06	1399.5	371.38	8.0726e-06	6.9854e-06	426.33	142.43	124.38	42.636	5.2107e-06	52.376	0.00068099	0.00067912	0.00018826	1429.2	7.4114e-06	7.4768e-06	1427.5	382.57	7.4597e-06	7.4708e-06	440.95	147.79	128.28	44.277	7.5058e-06	54.804	-17.787	8.508	327.332	-10.225	114.326	178.875	-10.397	-5.737	203.049	142.430	-6.260	-1.573	-1.077	3.155	138.204	2.625	-8191	255	
521.980	1	1	0	0	0.3803	0.14598	0.10236	0.34219	0.3764	0.16455	0.27434	0.16732	0.095404	0.18998	0.28087	0.063638	0.26014	0.25831	0.20796	0.19891	-2.6229	-3.0354	-2.7375	-3.2667	-2.9021	-2.8667	-3.5458	-2.8229	-3.1063	-2.9688	-2.9875	-3.2875	-2.9688	-3.0438	-3.2562	-2.9479	1.226	190.741	280.379	327.471	0.147	119.469	295.008	289.385	0.112	71.037	327.322	85.039	-11.991	13.063	25.443	275.484	0.00074555	0.0003841	0.00039505	1394.7	5.1365e-06	1.1572e-05	1400.4	373.16	6.9068e-06	6.9549e-06	428.08	142.66	123.84	42.676	5.8152e-06	52.632	0.00068071	0.00068402	0.00019005	1429.1	7.4807e-06	7.4854e-06	1428.9	383.04	7.4406e-06	7.5079e-06	441.5	147.79	128.23	44.203	7.3943e-06	54.839	-7.978	64.887	69.395	-10.267	84.881	141.156	-10.494	-5.427	216.735	104.993	-5.999	-1.421	-0.953	3.262	99.213	2.298	-8191	255	
522.101	1	1	0	0	0.093343	0.15628	0.11015	0.34681	0.28448	0.073622	0.22294	0.087694	0.1215	0.29738	0.20169	0.11023	0.29995	0.3999	0.23047	0.22639	-2.6917	-2.9167	-2.55	-3.3729	-2.8667	-2.825	-3.325	-2.9583	-3.0896	-3.1562	-2.7167	-3.2354	-3.2062	-2.9437	-3.2	-2.9667	71.750	241.672	44.789	332.490	62.773	199.891	334.946	306.679	32.235	298.532	292.307	251.713	-6.706	309.609	247.162	236.268	0.00091668	0.00078935	7.8757e-05	1399.3	2.9487e-06	9.966e-06	1393.7	373.84	2.3135e-06	7.306e-06	427.89	142.96	124.43	42.284	2.6961e-06	52.422	0.00068013	0.00067638	0.00018866	1430.6	7.4526e-06	7.4763e-06	1426.1	383.02	7.4586e-06	7.4659e-06	441.39	148.02	128.29	44.203	7.5001e-06	54.657	-12.065	-6.457	69.457	-10.314	125.746	103.270	-10.426	-5.780	321.508	136.937	-6.102	-1.484	-1.217	3.400	65.608	2.584	-8191	255	
522.197	1	1	0	0	0.086854	0.30986	0.12261	0.23841	0.21391	0.11397	0.031845	0.49248	0.095273	0.041684	0.30842	0.29447	0.33237	0.066009	0.07389	0.18141	-2.6854	-3.0979	-2.9021	-3.3958	-3.0187	-2.7354	-3.3458	-3.1625	-2.9021	-3.15	-2.9854	-3.3042	-3.1542	-2.7792	-3.4	-2.9729	290.826	290.336	242.440	8.730	22.262	218.705	133.927	288.745	-9.682	157.523	256.493	201.588	319.161	3.787	20.504	167.742	0.00083369	0.0001684	0.00030744	1393.1	9.4724e-06	2.9713e-06	1394.8	372.39	1.4522e-06	3.0536e-06	426.76	142.61	123.86	42.367	5.6525e-06	52.685	0.00068758	0.00068683	0.00019053	1427.1	7.4826e-06	7.4865e-06	1425.3	382.92	7.4872e-06	7.456e-06	441.13	147.95	128.19	44.209	7.5225e-06	54.879	1.376	83.816	118.113	-10.175	53.629	189.677	-10.469	-5.651	76.923	228.205	-6.208	-1.576	-0.991	3.225	84.586	2.755	-8191	255	
522.293	1	1	0	0	0.068941	0.17655	0.097961	0.48934	0.086462	0.14419	0.31237	0.1098	0.064181	0.27621	0.19363	0.30327	0.10252	0.15915	0.081803	0.171	-2.3438	-3.3729	-2.7458	-3.2458	-3.1354	-2.7167	-3.3521	-3.0167	-2.8917	-3.1875	-2.8521	-3.1667	-3.2604	-2.8208	-3.3958	-3.2	1.741	-20.029	300.399	280.617	31.464	34.113	270.419	258.957	289.089	136.648	191.989	48.490	56.334	257.052	256.407	176.095	0.00087409	0.0010374	0.00012099	1393.2	1.1243e-05	7.7536e-06	1399.1	371.78	9.2134e-06	1.1432e-06	427.18	142.94	123.75	42.535	2.6939e-06	52.15	0.00068347	0.00068671	0.00019151	1429.1	7.5617e-06	7.5642e-06	1427.7	383.12	7.5654e-06	7.5078e-06	441.28	148.02	128.07	44.213	7.4875e-06	54.633	3.691	80.430	55.201	-10.274	121.641	143.412	-10.452	-5.581	164.657	198.777	-6.035	-1.665	-1.147	3.156	330.462	2.365	-8191	255	
522.389	1	1	0	0	0.23086	0.19859	0.084894	0.27204	0.09366	0.027059	0.36176	0.38526	0.19495	0.29283	0.09762	0.10649	0.45417	0.10073	0.055793	0.099993	-2.5021	-3.2062	-2.7313	-3.1729	-3.1521	-3.0208	-3.4646	-3.1854	-3.0458	-3.3417	-2.8354	-2.9229	-3.4437	-2.9125	-3.0583	-3.175	106.540	310.925	252.718	308.863	-3.109	181.787	298.806	243.960	153.303	268.908	17.426	334.910	318.419	326.104	78.009	256.022	0.0011622	0.00041384	0.00027254	1398.7	8.5078e-06	4.7632e-06	1393.2	371.75	1.9635e-06	6.5637e-06	426.65	142.9	123.84	42.397	4.328e-06	52.5	0.00068645	0.00068451	0.00019188	1430.5	7.5521e-06	7.5641e-06	1427.2	382.71	7.5617e-06	7.583e-06	441.96	148.01	128.37	44.228	7.6067e-06	54.822	-10.661	-3.563	66.978	-10.214	53.007	231.231	-10.428	-5.402	195.270	131.608	-6.086	-1.414	-1.165	3.365	79.704	2.331	-8191	255	
522.510	1	1	0	0	0.082419	0.10897	0.29676	0.30152	0.19437	0.24708	0.22713	0.31508	0.2259	0.10086	0.052556	0.15103	0.10083	0.099332	0.092208	0.2096	-2.2396	-3.2521	-2.7958	-3.1104	-3.1271	-2.8063	-3.2146	-3.2938	-2.6667	-3.1854	-3.0354	-3.2021	-3.3854	-2.9813	-3.0375	-3.2208	229.133	322.320	314.595	298.507	125.219	-14.680	253.638	289.670	186.084	206.413	186.169	334.928	53.025	191.980	104.584	315.833	0.00072377	0.00066181	0.00028934	1396.8	8.4351e-06	5.2563e-06	1398.2	372.98	4.3726e-06	7.5411e-07	428.42	142.93	123.67	42.374	5.883e-06	52.843	0.00069072	0.00069608	0.00019316	1429.9	7.6024e-06	7.6564e-06	1429.5	383.52	7.6619e-06	7.643e-06	442.37	148.15	128.03	44.221	7.5386e-06	54.878	-15.914	84.664	12.982	-10.265	55.766	169.173	-10.348	-5.410	90.159	257.914	-6.005	-1.399	-1.084	3.200	28.624	2.604	-8191	255	
522.582	1	1	0	0	0.073903	0.12119	0.11381	0.30527	0.19042	0.078562	0.33468	0.1558	0.12965	0.2677	0.14201	0.22869	0.14645	0.063863	0.086699	0.033274	-2.3667	-3.2375	-2.9979	-3.0146	-3.2896	-2.6937	-3.3	-3.3917	-2.7458	-3.2562	-2.8958	-2.9333	-3.5062	-2.7396	-3.0708	-3.2958	85.369	61.525	250.221	294.962	68.034	23.079	254.848	204.201	11.201	3.654	168.626	301.340	307.902	267.035	248.172	31.344	0.0013189	0.0003618	0.00013866	1401	3.2238e-06	1.3037e-05	1399.3	372.35	8.2684e-06	9.9442e-06	428.15	142.78	124.15	42.587	5.7227e-06	52.221	0.00069751	0.00070529	0.00019469	1433.2	7.5581e-06	7.6241e-06	1430.4	383.4	7.679e-06	7.6788e-06	442.98	148.32	128.4	44.322	7.6701e-06	54.822	-20.686	294.118	-2.060	-10.178	162.610	166.123	-10.307	-5.632	195.406	108.789	-6.079	-1.595	-1.121	3.294	124.231	2.629	-8191	255	
522.678	1	1	0	0	0.14525	0.2503	0.061152	0.15329	0.12973	0.16838	0.23789	0.15426	0.17282	0.21012	0.10039	0.16915	0.025867	0.08062	0.23608	0.070397	-2.3312	-3.2083	-2.8688	-2.9938	-3.1396	-2.8208	-3.2167	-3.3187	-2.7771	-3.1542	-3.1958	-2.6396	-3.3625	-3.0771	-2.95	-3.4458	66.728	211.705	158.231	299.573	153.235	175.578	268.635	333.955	247.430	31.627	294.645	234.251	-13.736	320.386	255.933	172.764	0.0010816	0.00085317	0.00010395	1400.8	6.7907e-06	6.8711e-06	1398.1	374.62	2.4383e-06	7.3943e-06	428.64	142.44	124.07	42.469	1.4733e-06	52.641	0.0007015	0.0007012	0.00019514	1432.3	7.6748e-06	7.67e-06	1432.4	384.02	7.6254e-06	7.6452e-06	443.52	148.04	128.44	44.297	7.7079e-06	55.005	-19.225	2.355	110.031	-10.235	132.645	117.025	-10.368	-5.572	39.725	127.879	-6.204	-1.375	-1.207	3.569	242.228	2.411	-8191	255	
522.799	1	1	0	0	0.19418	0.098389	0.23533	0.18046	0.12603	0.095486	0.013707	0.089849	0.17244	0.22097	0.013639	0.24434	0.074309	0.28278	0.078079	0.30679	-2.5146	-3.1521	-3.0958	-3.025	-3.2208	-3.0625	-3.1396	-3.3312	-3.0792	-3.0792	-3.2021	-2.8688	-3.3187	-3.1333	-2.9292	-3.3688	49.227	257.652	226.667	286.174	177.258	332.828	258.992	252.210	280.147	44.237	163.003	336.263	224.261	31.185	271.551	256.735	0.0007036	0.00021075	0.0001374	1399.9	5.8265e-06	4.4242e-06	1400.9	370.94	1.1096e-05	5.0439e-06	428.48	142.95	123.52	42.39	7.2898e-06	52.394	0.00071012	0.00071643	0.00020048	1434	7.9392e-06	8.0493e-06	1433.7	383.98	8.1608e-06	8.2471e-06	444.35	149.15	128.83	44.522	8.3799e-06	55.198	311.509	1.709	49.726	-10.249	29.463	208.672	-10.139	-5.628	37.176	234.703	-6.266	-1.548	-1.214	3.347	106.006	2.405	-8191	255	
522.895	1	1	0	0	0.15635	0.1249	0.040277	0.13708	0.11344	0.12426	0.17843	0.087405	0.24106	0.17721	0.055015	0.032601	0.293	0.032814	0.14219	0.096964	-2.4625	-3.1083	-3.1437	-2.9771	-3.075	-3.1021	-3.2417	-3.5271	-2.8042	-3.0542	-3.2479	-2.8625	-3.475	-3.2292	-3.0292	-3.3563	49.697	244.265	329.481	304.539	143.260	289.504	274.510	328.683	-12.398	150.414	-11.838	161.652	-21.324	238.539	9.366	284.915	0.00092537	0.00065494	0.00019852	1395.2	7.5807e-06	3.7471e-06	1397.9	372.92	7.2556e-06	4.9017e-06	428.38	142.24	123.47	42.284	1.0677e-06	52.325	0.00075657	0.0007599	0.00021156	1436.3	8.3293e-06	8.3049e-06	1434.1	384.81	8.2426e-06	8.3193e-06	444.76	149.01	128.96	44.491	8.3017e-06	55.168	330.979	78.361	53.146	-10.296	90.535	202.727	-10.385	-5.461	106.117	200.055	-6.196	-1.592	-1.123	3.384	17.462	2.444	-8191	255	
522.989	1	1	0	0	0.084547	0.081473	0.1277	0.17917	0.2545	0.056574	0.25299	0.16196	0.35122	0.12921	0.047478	0.088138	0.19536	0.24725	0.098613	0.41756	-2.5896	-2.9396	-3.2313	-3.0687	-3.2125	-3.225	-3.0896	-3.3729	-2.9729	-2.9208	-3.3896	-2.9083	-3.3458	-3.2042	-2.925	-3.3896	193.397	248.149	64.841	308.734	188.429	151.587	282.689	216.311	192.376	91.126	-0.677	261.406	320.693	-3.468	96.726	304.509	0.0011978	0.00083	7.2981e-05	1397	9.1753e-06	5.3024e-06	1399.3	371.7	9.5433e-06	1.1096e-05	426.63	141.74	124.25	42.282	6.3422e-06	52.572	0.00075984	0.00076306	0.00021148	1435.4	8.3216e-06	8.3124e-06	1434.5	384.44	8.3494e-06	8.3443e-06	443.9	148.93	128.96	44.467	8.2574e-06	55.158	-4.752	44.142	47.905	-10.204	81.738	95.973	-10.247	-5.534	239.502	104.342	-5.693	-1.397	-1.284	3.380	-9.293	2.529	-8191	255	
523.085	1	1	0	0	0.052536	0.20528	0.027741	0.32351	0.14798	0.069861	0.092047	0.11766	0.3246	0.31863	0.1807	0.31303	0.05432	0.25268	0.1575	0.061607	-2.6083	-2.9458	-3.2021	-3.1167	-3.2	-3.3167	-3.0292	-3.4708	-3.2062	-2.8521	-3.6396	-3.1542	-3.1917	-3.3646	-2.9021	-3.3458	78.162	273.124	67.344	319.286	148.927	255.310	278.380	218.049	121.548	327.470	48.951	305.039	17.995	-7.633	84.399	320.172	0.00067848	0.00079044	6.7184e-05	1400.3	1.2333e-06	9.7769e-06	1397.7	371.74	4.444e-06	7.3078e-06	425.81	142.16	123.68	42.221	2.6502e-06	52.557	0.00075791	0.00076099	0.00021127	1434	8.3094e-06	8.2966e-06	1433.6	384.74	8.2972e-06	8.2838e-06	444.13	148.62	128.98	44.434	8.3061e-06	55.213	7.145	12.893	40.393	-10.085	231.356	167.425	-10.406	-5.598	169.776	160.555	-6.185	-2.002	-1.050	3.340	-21.208	2.321	-8191	255	
523.181	1	1	0	0	0.13652	0.16194	0.10532	0.37561	0.023485	0.084894	0.13729	0.29877	0.17096	0.05296	0.066548	0.55165	0.30595	0.30099	0.06981	0.17469	-2.5604	-2.8896	-3.275	-3.0896	-3.1396	-3.1333	-3.1479	-3.2687	-3.1188	-2.8792	-3.3646	-3.0125	-3.0292	-3.275	-2.7708	-3.3083	81.771	309.972	60.225	265.839	77.743	234.678	54.372	277.362	34.395	306.321	112.253	271.898	19.966	-8.625	237.151	116.466	0.00072702	0.00087015	4.0572e-05	1398.4	3.4515e-06	5.1927e-06	1400.7	372.5	1.8416e-05	3.5376e-06	426.05	142.37	123.42	42.371	1.0493e-05	52.33	0.00075095	0.00075908	0.00021107	1435.6	8.2904e-06	8.2919e-06	1435.1	385.03	8.3261e-06	8.303e-06	444.57	148.83	128.87	44.479	8.3238e-06	55.134	-18.928	330.624	53.170	-10.228	332.572	81.148	-10.371	-5.484	149.591	111.722	-6.297	-1.511	-0.992	3.317	60.844	2.406	-8191	255	
523.278	1	1	0	0	0.10382	0.16505	0.14798	0.084604	0.11256	0.021464	0.19951	0.18281	0.15454	0.10527	0.19432	0.085911	0.18211	0.16712	0.12224	0.21184	-2.8396	-2.8417	-3.1542	-3.2479	-3.075	-3.2646	-3.1312	-3.1937	-3.1021	-2.7917	-3.2062	-3.1625	-3.1729	-3.35	-2.8312	-3.1688	6.806	98.741	126.465	14.594	141.281	95.295	246.413	272.212	120.495	179.753	262.879	56.987	174.461	6.116	301.932	279.738	0.0010781	0.00011895	0.00010561	1398	9.3466e-06	6.175e-06	1398.9	371.94	1.09e-05	8.3346e-06	426.47	142.43	123.92	42.034	5.5066e-06	52.269	0.0007565	0.00076172	0.00021132	1435.9	8.3126e-06	8.3233e-06	1434.2	384.8	8.3016e-06	8.3206e-06	444.73	148.95	128.99	44.381	8.2894e-06	55.145	334.716	172.343	68.508	-10.388	48.458	251.771	-10.286	-5.672	178.894	226.163	-5.991	-1.602	-0.935	3.461	15.526	2.280	-8191	255	
523.398	1	1	0	0	0.058671	0.22251	0.10949	0.29422	0.079254	0.31543	0.2761	0.15143	0.065554	0.069171	0.38884	0.12846	0.2494	0.1514	0.21711	0.14326	-2.7313	-2.65	-3.3229	-3.2021	-3	-3.2	-3.0687	-3.2667	-3.2583	-2.8729	-3.3063	-3.3646	-2.975	-3.4104	-3.0333	-3.175	72.631	87.379	85.427	305.236	333.767	334.609	320.916	318.733	305.385	101.883	333.337	269.896	260.663	280.500	1.575	37.224	0.0012762	0.00023527	0.00018189	1401.4	7.1247e-06	1.8526e-06	1403.7	372.71	4.5826e-06	4.3841e-06	427.23	142.79	123.79	42.51	8.2067e-06	52.395	0.00075405	0.00075638	0.00020973	1436.7	8.2815e-06	8.2763e-06	1435.3	384.91	8.2778e-06	8.3318e-06	445.04	149.27	129.01	44.531	8.2543e-06	55.211	-10.275	335.606	74.495	-10.056	60.577	164.707	-10.481	-5.584	101.009	87.480	-5.903	-1.630	-1.011	3.384	119.151	2.461	-8191	255	
523.494	1	1	0	0	0.12469	0.068872	0.17663	0.24414	0.031416	0.079563	0.1407	0.10699	0.30547	0.11375	0.16306	0.075992	0.1408	0.21848	0.12145	0.39668	-3.0563	-2.6583	-3.0729	-3.2687	-2.8646	-3.3021	-3.1292	-3.0687	-3.2396	-2.7188	-3.2604	-3.3312	-2.9188	-3.4042	-3.0771	-3.1312	311.581	-19.299	316.623	271.262	-5.912	85.292	268.361	327.074	239.496	-6.359	317.124	198.485	145.094	240.938	63.647	282.318	0.0011254	0.00071826	0.00026873	1396.5	4.3495e-06	3.0528e-06	1396.2	373.15	4.2998e-06	4.761e-06	427.76	142.35	124.07	42.468	4.0487e-06	52.396	0.00074758	0.00074415	0.00020748	1434.7	8.1551e-06	8.1367e-06	1432	385.42	8.053e-06	8.0452e-06	444.03	148.75	128.88	44.401	7.9374e-06	55.022	4.398	12.158	31.263	-10.274	38.413	211.142	-10.372	-5.539	59.100	90.293	-5.724	-1.493	-0.965	3.322	45.210	2.550	-8191	255	
523.590	1	1	0	0	0.37966	0.2097	0.20108	0.15456	0.098366	0.32593	0.16664	0.22124	0.085874	0.065981	0.047029	0.097788	0.13384	0.17348	0.27174	0.1281	-2.6479	-2.7521	-3.05	-3.3979	-2.8937	-3.2313	-3.2521	-3.175	-3.25	-2.9333	-3.0958	-3.4104	-2.8583	-3.1417	-3.0083	-2.9729	288.510	39.852	195.029	274.458	156.483	94.848	1.339	-3.672	107.565	10.685	221.507	28.221	286.708	103.045	132.857	216.141	0.0012	0.00074779	0.00013348	1399.5	2.041e-06	5.437e-06	1399.3	373.55	5.0056e-06	1.0887e-06	426.44	142.45	123.78	42.488	5.4816e-06	52.435	0.00072459	0.00072438	0.0002016	1435	7.8734e-06	7.9138e-06	1431.8	384.75	7.8622e-06	7.8771e-06	443.62	148.7	128.74	44.424	7.922e-06	55.071	327.377	-14.855	180.612	-10.481	200.515	139.258	-10.295	-5.623	53.304	244.932	-6.069	-1.516	-1.116	3.324	127.574	2.434	-8191	255	
523.687	1	1	0	0	0.21267	0.26462	0.13894	0.30801	0.20461	0.050177	0.21703	0.27504	0.082634	0.12753	0.049123	0.19855	0.27315	0.067238	0.13159	0.18452	-2.9813	-2.8833	-3.2271	-3.475	-2.9229	-3.3583	-3.2562	-2.9604	-3.35	-2.9229	-3.3104	-3.425	-3.0396	-3.2958	-3.0646	-2.8333	87.573	304.851	212.972	321.050	230.729	211.431	296.692	301.792	60.045	135.684	225.326	296.462	320.972	290.883	5.046	191.282	0.00093275	0.00049994	0.00015011	1398.9	8.4502e-06	1.0217e-05	1398.3	372.27	9.1697e-06	4.266e-06	426.93	142.45	123.87	42.53	1.075e-05	52.478	0.00072171	0.00072006	0.00020141	1434	7.8492e-06	7.8563e-06	1430.8	383.94	7.816e-06	7.8653e-06	443.48	148.48	128.73	44.421	7.9481e-06	55.081	-16.988	27.598	16.706	-10.302	84.489	100.964	-10.535	-5.225	105.805	134.699	-6.136	-1.970	-1.289	3.189	44.775	2.491	-8191	255	
523.805	1	1	0	0	0.26817	0.20192	0.12868	0.33343	0.20459	0.24927	0.19632	0.18248	0.058764	0.14876	0.21971	0.14391	0.16318	0.4029	0.14267	0.18071	-2.9479	-2.8875	-2.9813	-3.5354	-2.9562	-3.0396	-3.4062	-2.8563	-3.2708	-3.0021	-3.2604	-3.4958	-2.9688	-3.2229	-3.1292	-2.9333	334.950	63.588	248.498	308.216	260.175	292.970	309.108	272.104	56.847	79.319	294.776	51.543	-16.098	331.170	48.571	9.801	0.0007034	0.00042578	6.6035e-05	1399.1	7.3053e-06	5.674e-06	1399.9	373.42	1.8259e-06	1.2553e-06	426.95	142.92	124.35	42.355	1.2485e-05	52.577	0.00072796	0.00073844	0.00020591	1435.3	8.0099e-06	8.0739e-06	1433.2	385.18	8.1107e-06	8.1593e-06	444.23	148.96	128.89	44.492	8.1503e-06	55.099	-12.785	299.665	1.014	-10.164	95.466	99.628	-10.364	-5.458	36.541	225.060	-6.320	-1.510	-1.112	3.467	126.063	2.716	-8191	255	
523.877	1	1	0	0	0.1654	0.093401	0.024432	0.10852	0.26613	0.14883	0.22611	0.34064	0.084518	0.1179	0.26211	0.055905	0.048491	0.40574	0.10279	0.13238	-2.8812	-3.1896	-2.8438	-3.3292	-2.9667	-3.0104	-3.4208	-2.9062	-3.1792	-2.9458	-3.1167	-3.3625	-3.1125	-3.0771	-3.1646	-2.9125	204.509	147.763	136.251	303.619	119.532	141.932	251.220	192.164	275.556	42.966	-16.374	78.816	-13.716	233.345	99.533	-17.213	0.0010582	0.00039099	0.00034464	1397.8	4.0878e-06	6.8967e-06	1399.1	372.98	9.0806e-06	4.9429e-06	426.83	142.98	124.34	42.378	3.669e-06	52.232	0.00074466	0.0007406	0.00020748	1435.5	8.1594e-06	8.2006e-06	1434.6	384.96	8.1436e-06	8.1589e-06	444.49	149.1	129.03	44.441	8.0895e-06	55.07	334.543	76.633	56.046	-10.140	184.613	236.104	-10.356	-5.468	18.508	113.663	-6.256	-1.489	-0.861	3.548	76.291	2.444	-8191	255	
523.973	1	1	0	0	0.15247	0.11484	0.15554	0.14253	0.1137	0.30706	0.15479	0.17491	0.092345	0.16546	0.1662	0.22175	0.0064461	0.093078	0.20013	0.05643	-2.6583	-3.0646	-2.7271	-3.5729	-2.9437	-2.8542	-3.3438	-2.9771	-2.9958	-3.1167	-3.0792	-3.4917	-2.9854	-3.0667	-3.1625	-2.9896	249.123	204.858	6.742	281.333	165.744	310.663	237.069	291.022	9.341	160.049	220.474	9.295	198.609	31.252	-14.783	232.975	0.0010875	0.00018727	6.818e-05	1395.3	9.9399e-06	7.7881e-06	1397.6	372.21	2.0159e-06	7.0754e-06	429.91	142.51	124.31	42.646	3.9958e-06	52.345	0.00073527	0.00073549	0.00020449	1435.2	8.0266e-06	8.0901e-06	1433	384.56	8.1339e-06	8.1046e-06	444.4	148.82	128.91	44.547	8.0798e-06	55.03	4.554	246.537	40.187	-10.352	87.407	127.307	-10.314	-5.651	-13.783	86.298	-6.057	-1.443	-1.190	3.396	123.586	2.424	-8191	255	
524.069	1	1	0	0	0.18618	0.16158	0.17012	0.26034	0.16224	0.13988	0.26138	0.22792	0.10886	0.2568	0.19623	0.39426	0.20393	0.21849	0.1688	0.078239	-2.8042	-2.9917	-2.7771	-3.3812	-2.9375	-2.9583	-3.4333	-3.0521	-3.0979	-3.2875	-2.9396	-3.3167	-3.1667	-3.0708	-3.2083	-3.2	73.859	-13.219	133.715	292.806	89.614	196.640	255.727	308.173	-10.984	131.843	288.591	1.951	295.972	-19.237	75.782	122.423	0.001085	0.00058082	9.2109e-05	1400.5	4.6083e-06	4.2655e-06	1393	373.22	9.5759e-06	2.4729e-06	426.07	142.75	123.68	42.345	4.4619e-06	52.336	0.00074348	0.00073573	0.00020491	1436.6	8.0786e-06	8.0339e-06	1431.4	384.63	8.059e-06	8.076e-06	443.49	148.81	128.8	44.407	8.0182e-06	55.037	-4.488	53.373	256.146	-10.063	98.218	6.021	-10.121	-5.508	169.301	260.337	-5.951	-1.665	-0.952	3.468	9.641	2.264	-8191	255	
524.166	1	1	0	0	0.046963	0.080079	0.27846	0.40874	0.17624	0.20977	0.45341	0.26708	0.2747	0.033239	0.28099	0.22319	0.41041	0.12137	0.31601	0.2215	-2.6854	-3.3021	-2.9021	-3.3083	-3.1021	-2.8187	-3.4708	-3.1792	-2.8563	-3.45	-2.9938	-3.3396	-3.2146	-2.8167	-3.1896	-2.9625	299.896	167.099	123.988	275.773	99.480	7.106	271.790	316.355	133.613	55.570	254.117	210.663	295.720	218.645	290.180	-20.489	0.0011442	0.00033548	6.9993e-05	1400.9	6.7879e-06	7.2396e-06	1391.7	371.34	9.4928e-06	4.9496e-06	429.05	142.02	123.47	42.36	8.5418e-06	52.173	0.00073159	0.00073127	0.000204	1435.7	8.0494e-06	8.0987e-06	1431.5	384.54	8.0831e-06	8.1499e-06	444.78	148.49	128.68	44.41	8.0478e-06	54.966	16.806	106.777	157.061	-10.136	99.874	135.636	-10.211	-5.505	136.572	88.949	-5.908	-1.714	-1.234	3.447	45.785	2.342	-8191	255	
524.286	1	1	0	0	0.12163	0.17014	0.091533	0.20537	0.13306	0.25975	0.41836	0.18923	0.12555	0.26341	0.26327	0.197	0.095703	0.17107	0.15261	0.28343	-2.6063	-3.1271	-2.6937	-3.2938	-3.2208	-2.8417	-3.4167	-3.075	-2.9708	-3.0979	-3.0083	-3.2292	-3.2083	-2.8167	-3.1646	-3	2.938	237.612	129.267	290.419	191.447	154.570	276.847	257.716	64.042	96.018	-7.744	214.140	285.358	69.476	60.917	323.750	0.00056181	0.0010559	0.0001456	1398.3	6.9946e-06	4.9796e-06	1398	373.66	8.2568e-06	4.4241e-06	427.34	141.34	123.3	42.36	6.1118e-06	52.519	0.00074509	0.0007408	0.00020698	1435.1	8.1744e-06	8.1925e-06	1432.9	384.82	8.1552e-06	8.1477e-06	444.26	148.76	128.57	44.385	8.145e-06	55.15	-18.500	11.912	204.595	-9.937	-17.543	114.538	-10.148	-5.370	130.771	143.628	-6.092	-1.179	-1.046	3.221	121.138	2.334	-8191	255	
524.382	1	1	0	0	0.19039	0.10297	0.1116	0.15464	0.077505	0.11957	0.3374	0.3545	0.03539	0.3201	0.082842	0.11844	0.26582	0.22363	0.094882	0.20139	-2.4167	-3.0917	-2.7292	-3.1333	-3.0583	-2.7354	-3.3292	-3.0479	-2.8479	-3.25	-2.9938	-3.1042	-3.3396	-2.6312	-3.2708	-3.0604	116.428	106.578	109.749	322.115	171.006	140.663	251.968	284.871	47.955	119.125	98.689	175.913	315.444	261.447	290.834	251.112	0.001174	0.00054634	0.00023395	1391.6	8.7176e-06	5.4507e-06	1397.4	372.7	1.4017e-05	8.8596e-06	425.43	141.64	123.62	42.393	3.6057e-06	52.287	0.00074397	0.00074232	0.0002065	1433	8.1917e-06	8.22e-06	1431.6	384.79	8.2589e-06	8.2959e-06	443.33	148.74	128.57	44.466	8.2724e-06	55.129	336.493	57.144	301.365	-10.182	105.941	3.810	-10.398	-5.457	78.311	102.700	-5.950	-1.579	-1.058	3.235	332.113	2.557	-8191	255	
524.479	1	1	0	0	0.26528	0.29089	0.069259	0.41861	0.19193	0.11641	0.2199	0.33108	0.073863	0.11351	0.30372	0.089265	0.31249	0.11359	0.088262	0.059402	-2.3271	-3.2896	-2.8979	-3.2	-3.4021	-2.8354	-3.2625	-3.1521	-2.8917	-3.4	-3.1354	-2.9229	-3.6271	-2.925	-3.0104	-3.4104	266.477	282.841	136.888	332.383	106.204	214.501	318.918	231.183	240.487	281.975	203.105	331.202	327.332	310.442	116.618	-10.123	0.00087406	0.00085187	0.00025381	1399.9	3.8801e-06	2.7743e-06	1394.7	371.47	1.2065e-05	8.1386e-06	425.37	141.98	123.84	42.502	2.2186e-06	52.376	0.00075309	0.00075913	0.00021085	1434.1	8.2941e-06	8.3066e-06	1431.6	384.42	8.2396e-06	8.2852e-06	444.05	148.8	128.72	44.501	8.3527e-06	55.175	335.338	12.670	91.726	-10.261	100.991	103.978	-10.283	-5.564	93.124	131.626	-6.068	-1.291	-0.908	3.364	137.031	2.111	-8191	255	
524.575	1	1	0	0	0.15452	0.30481	0.25324	0.27135	0.22402	0.028219	0.0056512	0.2453	0.31399	0.12192	0.20606	0.062679	0.27502	0.20746	0.19657	0.13312	-2.3812	-3.3063	-3.0375	-2.9792	-3.2958	-3.0687	-3.3021	-3.2833	-2.7208	-3.1833	-3.1125	-2.9021	-3.3771	-2.9875	-3.1021	-3.4625	122.850	227.212	138.057	238.142	178.566	55.034	42.244	322.587	113.985	136.145	-12.623	242.047	332.454	-13.274	-11.343	30.101	0.00090476	0.00098654	0.00013955	1393.2	1.909e-06	9.059e-06	1397.6	372.98	1.2656e-05	8.245e-06	427.17	142.1	124.14	42.36	4.0925e-06	52.285	0.00075004	0.00075421	0.0002099	1434.2	8.2487e-06	8.2503e-06	1432.4	384.54	8.2036e-06	8.2315e-06	444.03	148.9	128.85	44.384	8.2845e-06	55.087	331.888	49.517	61.721	-10.275	296.451	104.542	-10.143	-5.513	140.159	185.692	-6.211	-1.309	-1.106	3.654	179.587	2.170	-8191	255	
524.671	1	1	0	0	0.12945	0.032909	0.1133	0.12249	0.10072	0.23684	0.13016	0.26463	0.25906	0.042749	0.12738	0.159	0.055472	0.19445	0.2461	0.06131	-2.3083	-3.1104	-3.1	-3.0604	-3.3021	-2.925	-3.2354	-3.2833	-2.9979	-3.1312	-3.2313	-3.0333	-3.5062	-3.0708	-3.0479	-3.3042	82.365	4.097	111.142	333.302	183.226	63.346	257.580	279.309	176.188	68.750	245.723	219.892	-7.612	-4.558	102.351	156.329	0.0011583	0.00055492	0.00024873	1396	3.9126e-06	7.8844e-06	1395.7	372.62	1.1324e-05	9.4646e-07	426.37	143.08	124.05	42.264	8.2298e-06	52.448	0.0007512	0.00075245	0.00021058	1434.5	8.3144e-06	8.3233e-06	1432.2	384.86	8.2869e-06	8.3634e-06	443.83	148.68	128.88	44.474	8.3524e-06	55.146	-14.053	73.152	39.655	-10.130	102.477	142.722	-10.351	-5.578	37.591	319.430	-6.033	-1.514	-1.029	3.404	104.150	2.361	-8191	255	
524.767	1	1	0	0	0.18522	0.15194	0.18141	0.31466	0.20983	0.18692	0.20144	0.15854	0.083872	0.025629	0.23858	0.08836	0.16989	0.015021	0.33768	0.086008	-2.4292	-3.1354	-3.2313	-3.0938	-3.4229	-2.9354	-3.2021	-3.4021	-2.8125	-3.1792	-3.2729	-2.8854	-3.3958	-3.0625	-2.8667	-3.2333	51.972	182.212	-4.937	314.410	251.774	183.732	247.986	237.835	329.716	202.137	-9.981	266.084	11.522	300.044	315.515	133.646	0.0011168	0.00086667	4.6827e-05	1397.7	6.846e-06	6.7854e-06	1398.5	373.44	3.1086e-06	9.4242e-06	428.41	141.7	123.87	42.441	7.6634e-06	52.657	0.00075271	0.00076043	0.00021175	1434.4	8.3037e-06	8.2974e-06	1431.3	384.66	8.248e-06	8.3266e-06	444.58	148.52	128.74	44.474	8.2795e-06	55.201	322.967	6.041	315.831	-10.185	315.177	97.415	-10.223	-5.473	35.096	148.653	-6.041	-1.547	-1.085	3.333	97.603	2.695	-8191	255	
524.886	1	1	0	0	0.2045	0.33736	0.2177	0.27452	0.14392	0.09186	0.25771	0.25827	0.20055	0.17227	0.18733	0.098201	0.37707	0.15887	0.11481	0.20969	-2.4271	-3.1583	-3.0708	-3.0479	-3.2125	-3.0563	-3.0479	-3.4729	-2.6771	-2.9354	-3.2687	-2.7667	-3.3667	-3.0583	-2.7958	-3.2958	295.269	-8.299	181.509	236.406	201.334	291.353	236.571	333.860	158.679	154.940	281.871	129.241	-19.965	245.376	114.102	292.337	0.00090688	0.00028477	8.6116e-05	1392.4	4.309e-06	1.4831e-05	1399.9	372.77	1.6119e-05	8.8788e-06	428.13	142.2	123.5	42.164	1.1708e-05	52.371	0.00075475	0.00076023	0.00021114	1433.5	8.3102e-06	8.3914e-06	1431.6	384.71	8.2993e-06	8.3482e-06	444.27	148.67	128.81	44.424	8.3256e-06	55.078	-10.038	30.802	44.068	-10.158	50.923	139.642	-10.366	-5.542	100.593	168.690	-6.218	-1.304	-0.955	3.582	119.931	2.329	-8191	255	
524.982	1	1	0	0	0.10992	0.063258	0.12953	0.1632	0.098081	0.08547	0.25158	0.44512	0.21484	0.10011	0.1617	0.03495	0.14785	0.13768	0.35332	0.11972	-2.4	-2.9458	-3.0104	-2.9396	-3.2021	-3.0771	-3.0396	-3.4417	-2.9813	-3.0542	-3.2938	-2.9813	-3.2146	-3.2917	-2.7875	-3.4042	100.769	171.146	172.005	293.100	20.457	183.129	245.359	243.470	30.714	60.383	256.563	76.028	278.976	323.337	-3.319	16.836	0.00098402	0.00081025	0.00012972	1394.9	1.3758e-05	2.4335e-06	1402.6	370.36	8.5411e-06	7.1397e-06	426.35	142.17	123.28	42.252	6.1431e-06	52.219	0.00076672	0.00076723	0.00021151	1432.4	8.3855e-06	8.3792e-06	1433.5	384.36	8.4065e-06	8.3984e-06	443.78	148.75	128.55	44.392	8.3719e-06	55.128	329.688	26.444	110.688	-10.207	81.106	-15.714	-10.222	-5.500	173.296	162.683	-5.910	-0.890	-1.040	3.213	186.174	2.627	-8191	255	
525.078	1	1	0	0	0.071831	0.18652	0.09831	0.22952	0.06662	0.030816	0.38778	0.1555	0.017001	0.048244	0.083952	0.1098	0.061574	0.060088	0.44554	0.20409	-2.6104	-2.8417	-3.3937	-2.7417	-3.0062	-3.3729	-3.0083	-3.4021	-2.9646	-2.9271	-3.4	-3.0396	-3.1771	-3.1813	-2.8375	-3.3833	330.767	171.373	213.253	254.285	269.494	232.742	249.353	141.693	322.041	188.723	263.821	312.926	146.902	49.157	260.112	312.008	0.00072452	0.0002859	0.00019174	1395	5.4689e-06	7.9812e-06	1398.2	371.51	1.5577e-05	1.3128e-05	427.65	141.68	123.24	42.359	7.4483e-06	52.147	0.00076532	0.00076953	0.00021396	1432.6	8.3742e-06	8.418e-06	1431.3	384.44	8.4061e-06	8.4217e-06	443.79	148.44	128.78	44.431	8.4612e-06	55.123	25.170	329.798	113.436	-9.906	86.832	165.541	-10.349	-5.369	127.779	124.972	-6.024	-1.255	-0.977	3.439	143.462	2.679	-8191	255	
525.174	1	1	0	0	0.11967	0.29462	0.16148	0.14505	0.11302	0.18962	0.19679	0.25015	0.01506	0.070054	0.29708	0.1752	0.17367	0.13265	0.10301	0.49533	-2.7396	-2.9271	-3.2354	-2.9292	-2.9521	-3.0979	-3.0042	-3.1813	-3.0563	-2.725	-3.3625	-2.9083	-3.0771	-3.1208	-2.6188	-3.2333	77.877	114.152	299.504	181.124	63.716	-11.633	-3.292	244.185	244.007	293.744	297.623	-14.323	310.529	271.402	262.670	242.976	0.0011692	0.00094155	0.00020795	1396.6	1.0073e-05	9.4686e-06	1396.8	371.71	8.8125e-06	5.9735e-06	424.74	141.46	123.18	42.101	3.3359e-06	52.276	0.00077152	0.00077401	0.00021489	1432.1	8.5e-06	8.4599e-06	1430.7	384.18	8.4822e-06	8.4164e-06	443.24	148.76	128.64	44.324	8.5173e-06	55.11	325.445	45.409	78.717	-10.072	61.262	114.380	-10.265	-5.664	143.706	123.693	-6.088	-1.561	-1.166	3.410	15.033	2.621	-8191	255	
525.270	1	1	0	0	0.10638	0.1146	0.18569	0.11024	0.19314	0.18385	0.046958	0.1949	0.11133	0.15736	0.16365	0.22374	0.12988	0.30057	0.096403	0.13145	-2.3875	-2.7125	-3.1333	-3.2208	-2.8646	-3.2188	-2.9458	-3.1271	-3.2104	-2.5646	-3.2875	-3.0021	-3.0062	-3.1792	-2.7604	-3.1625	-21.820	40.197	216.703	21.398	236.069	70.542	313.686	274.897	76.625	227.074	24.342	279.417	83.778	-0.520	205.608	125.301	0.00049279	0.00051547	5.618e-05	1391.9	9.7709e-06	4.8322e-06	1392	372.58	6.6929e-06	4.0695e-06	424.53	141.87	123.4	42.231	4.5226e-06	52.145	0.00077305	0.00077556	0.00021514	1431.9	8.4856e-06	8.4498e-06	1430.6	384.49	8.4558e-06	8.4579e-06	444.24	148.67	128.48	44.39	8.4722e-06	55.154	316.833	119.667	223.566	-10.239	136.077	105.293	-10.286	-5.633	85.840	157.684	-6.107	-1.470	-1.210	3.478	134.546	2.595	-8191	255	
525.367	1	1	0	0	0.15656	0.36304	0.12429	0.29074	0.11366	0.1407	0.31438	0.43967	0.031672	0.14156	0.15662	0.18646	0.21235	0.12947	0.074342	0.23169	-2.9125	-2.6562	-3.1979	-3.05	-2.8271	-3.3646	-2.9854	-3.2062	-3.2687	-2.6896	-3.4229	-3.15	-2.9646	-3.3729	-2.8896	-2.9167	133.218	55.340	56.958	301.736	331.469	333.644	312.497	301.694	87.706	152.212	277.877	268.618	47.771	288.308	140.810	296.951	0.0010563	0.00077906	0.00015083	1397.6	6.6073e-06	8.1395e-06	1396	372.83	1.2319e-05	1.0556e-05	426.11	142.2	123.47	42.241	9.4741e-06	52.174	0.00077076	0.00077485	0.0002149	1433.9	8.4807e-06	8.4325e-06	1430.6	384.57	8.373e-06	8.4071e-06	443.61	148.55	128.59	44.336	8.339e-06	55.054	-8.054	38.097	-19.970	-10.300	49.143	157.296	-10.027	-5.465	95.372	125.146	-5.790	-1.626	-0.909	3.494	130.734	2.407	-8191	255	
525.487	1	1	0	0	0.23556	0.22377	0.23173	0.41093	0.12272	0.094831	0.43235	0.19713	0.084973	0.17343	0.061164	0.092337	0.24398	0.16123	0.1737	0.16378	-2.8104	-2.8083	-3.1312	-3.1146	-2.8	-3.3542	-3.0208	-3.1312	-2.9646	-2.6479	-3.1833	-3.1063	-2.8125	-3.2792	-2.9979	-3.0667	141.758	41.462	56.064	290.493	187.969	14.864	276.563	257.551	108.144	329.986	183.851	308.560	223.828	-22.607	97.807	263.631	0.000988	0.00026926	7.8384e-05	1397.3	3.7103e-06	3.7512e-06	1395	371.99	1.9264e-05	7.7651e-06	425.38	142.19	123.62	42.32	9.6566e-06	52.09	0.00075789	0.00075484	0.00021151	1432	8.33e-06	8.3369e-06	1428.9	384.42	8.3078e-06	8.3484e-06	443.35	148.36	128.72	44.401	8.3114e-06	55.019	-20.879	-2.041	3.391	-10.081	33.198	180.769	-10.172	-5.495	219.352	131.552	-6.089	-1.574	-1.084	3.488	198.259	2.501	-8191	255	
525.583	1	1	0	0	0.092715	0.27831	0.17113	0.20544	0.079615	0.099192	0.10465	0.33094	0.033623	0.30533	0.20854	0.06419	0.1397	0.022966	0.19251	0.081339	-2.8583	-2.6729	-3.0187	-3.3375	-2.8229	-3.2125	-3.3	-2.9875	-3.425	-2.7854	-3.0771	-3.2438	-2.8375	-3.2812	-2.8917	-2.9771	304.438	147.181	48.433	3.256	294.676	202.075	274.597	276.406	154.226	24.562	-2.590	225.548	311.923	203.101	281.607	250.043	0.00091141	0.00049372	0.00022568	1391.9	4.9816e-06	1.5196e-06	1393.1	371.59	8.8445e-06	6.6255e-06	425.99	141.58	122.99	42.24	2.6155e-06	52.259	0.00076035	0.00076132	0.00021343	1433.2	8.3544e-06	8.361e-06	1430.2	384.5	8.3092e-06	8.3026e-06	443.83	148.39	128.48	44.366	8.3827e-06	55.146	-6.118	39.020	122.858	-10.052	33.736	256.868	-10.209	-5.501	117.510	79.160	-6.224	-1.557	-0.991	3.169	231.325	2.395	-8191	255	
525.678	1	1	0	0	0.21675	0.15596	0.25154	0.10487	0.075566	0.089237	0.32923	0.31152	0.079395	0.11633	0.096607	0.1167	0.20012	0.27031	0.18528	0.32662	-2.8	-2.7979	-2.8396	-3.3542	-2.7438	-3.2333	-3.2604	-3.0625	-3.3271	-2.8375	-3.1396	-3.2333	-3.0583	-3.2417	-2.9542	-2.8104	313.682	321.554	13.221	282.757	-4.505	66.057	302.250	284.434	277.220	165.077	269.609	312.809	-13.450	-18.430	72.358	300.751	0.0013046	0.0003616	0.00026497	1391.2	1.0221e-05	8.0891e-06	1392.6	372.75	1.0535e-05	9.2174e-06	427.27	142.03	123.79	42.163	5.9481e-06	52.253	0.00076652	0.00076294	0.00021327	1432.1	8.3394e-06	8.3845e-06	1429.7	384.79	8.3189e-06	8.3115e-06	443.82	148.41	128.63	44.384	8.2691e-06	55.036	-8.362	101.704	110.463	-10.291	97.760	227.137	-10.183	-5.555	134.346	55.921	-5.755	-1.592	-0.943	3.412	107.425	2.665	-8191	255	
525.751	1	1	0	0	0.037995	0.038537	0.11075	0.13591	0.21914	0.21302	0.28059	0.10902	0.24068	0.27917	0.12949	0.1965	0.058958	0.12895	0.098486	0.019995	-2.9167	-2.8271	-3.125	-3.3854	-2.8479	-3.2188	-3.2687	-2.9167	-3.2646	-2.9604	-3.1417	-3.4208	-3.0646	-3.2479	-3.1354	-2.875	35.117	186.017	264.016	-17.765	21.324	-14.281	280.544	78.012	38.733	174.088	95.586	-22.769	257.527	287.139	75.385	187.073	0.0013493	0.00018981	0.00014877	1395.8	3.7726e-06	3.1968e-06	1392	372.73	1.2788e-05	5.2629e-06	425.52	142.38	122.99	42.175	2.5615e-06	52.324	0.00075839	0.0007558	0.00021051	1433.8	8.3067e-06	8.2954e-06	1429	384.56	8.2713e-06	8.3027e-06	443.72	148.6	128.36	44.335	8.2799e-06	55.029	325.100	197.371	39.277	-10.230	58.579	277.373	-10.286	-5.378	105.692	134.320	-5.976	-1.578	-1.082	3.463	76.358	2.961	-8191	255	
525.870	1	1	0	0	0.23019	0.15107	0.2161	0.23771	0.11375	0.086698	0.17635	0.20345	0.084306	0.16304	0.16092	0.17425	0.20903	0.32174	0.27034	0.056258	-2.7458	-3.0125	-2.85	-3.3438	-2.9354	-2.9062	-3.1562	-2.8458	-3.3729	-3.1771	-3.0542	-3.3187	-2.9271	-3.0146	-3.2417	-2.8187	83.883	258.198	144.260	294.811	311.128	182.446	308.192	277.110	4.373	192.016	316.004	195.362	260.773	289.549	96.592	168.159	0.0011768	0.00039946	6.5701e-05	1394.7	5.9344e-06	3.3728e-06	1390	373.32	7.3683e-06	4.8316e-06	426.78	142.29	123.63	42.223	3.4065e-06	52.589	0.00075481	0.0007631	0.00021014	1433.1	8.315e-06	8.3089e-06	1430	384.92	8.3224e-06	8.3652e-06	444	148.54	128.78	44.409	8.3248e-06	55.108	-18.582	61.138	79.327	-9.970	44.824	126.604	-10.286	-5.529	122.696	215.875	-5.766	-1.390	-1.038	3.575	256.770	2.637	-8191	255	
525.966	1	1	0	0	0.14876	0.03653	0.16088	0.15055	0.28817	0.12734	0.17578	0.2943	0.054789	0.14515	0.10599	0.14073	0.19408	0.21322	0.15953	0.042556	-2.8125	-3.0875	-2.6833	-3.3	-2.9542	-3.0354	-3.3375	-3.0646	-3.0938	-3.1	-2.9396	-3.3104	-3.175	-3.0417	-3.1375	-2.9542	248.763	125.098	274.155	287.604	214.081	154.545	242.241	304.221	302.495	82.459	4.475	321.886	293.318	256.682	6.883	146.561	0.00075429	0.00095631	0.00021799	1394.9	6.0904e-06	1.4014e-06	1394.5	372.56	3.4807e-06	4.827e-06	428.16	141.87	123.62	42.204	4.2012e-06	52.259	0.00075898	0.00075988	0.00021014	1432.8	8.2908e-06	8.3403e-06	1429.9	384.87	8.2915e-06	8.3523e-06	444.36	148.59	128.51	44.406	8.3255e-06	55.074	332.088	318.549	27.103	-9.973	97.611	14.463	-10.163	-5.435	282.778	118.654	-6.298	-1.573	-0.986	3.315	110.504	2.428	-8191	255	
526.062	1	1	0	0	0.2209	0.37286	0.059847	0.069092	0.075175	0.14736	0.11829	0.057125	0.16155	0.10526	0.19107	0.074343	0.13543	0.13098	0.27728	0.11076	-2.6646	-3.0583	-2.75	-3.5979	-2.9458	-2.8	-3.3063	-2.8125	-3.1146	-3.3417	-2.8563	-3.2896	-3.225	-2.8146	-3.3521	-2.9458	122.167	189.120	288.625	270.507	87.863	19.998	312.507	92.678	119.810	54.793	29.626	28.307	-1.995	-13.056	37.221	205.228	0.0010201	0.00088187	6.1728e-05	1388.6	4.0821e-06	9.7209e-06	1395	371.33	1.118e-05	3.1891e-06	426.19	142.39	122.88	42.261	4.3669e-07	52.262	0.0007581	0.00075518	0.00021037	1430	8.2367e-06	8.347e-06	1431.3	384.29	8.333e-06	8.3889e-06	444.58	148.7	128.54	44.427	8.3015e-06	55.121	319.116	-6.504	281.023	-10.142	105.572	115.397	-10.233	-5.447	80.823	334.329	-5.946	-1.473	-0.980	3.338	-14.855	2.455	-8191	255	
526.159	1	1	0	0	0.25448	0.077549	0.23976	0.21546	0.15862	0.0895	0.094122	0.11759	0.076576	0.27583	0.17007	0.16076	0.23504	0.14981	0.21942	0.24107	-2.7333	-3.225	-2.8479	-3.5042	-3.2125	-2.8688	-3.4688	-3.275	-3.2021	-3.0708	-2.8917	-3.3146	-3.1542	-2.9	-3.3604	-2.9437	-18.568	212.508	63.530	276.137	306.108	134.974	258.519	258.034	54.151	248.154	321.197	288.642	41.103	201.229	181.434	148.407	0.00070157	0.00040063	1.0279e-05	1393.2	6.5808e-06	2.9876e-06	1394	370.46	5.2725e-06	4.5829e-06	425.03	142.26	122.99	42.36	2.7759e-06	52.291	0.0007578	0.00076146	0.00021053	1432.3	8.2729e-06	8.303e-06	1431.2	384	8.3007e-06	8.2741e-06	443.87	148.72	128.52	44.393	8.2878e-06	55.111	-21.674	12.951	145.555	-10.080	117.692	174.021	-10.258	-5.550	163.253	141.176	-5.728	-1.437	-0.974	3.427	42.771	2.695	-8191	255	
526.279	1	1	0	0	0.11249	0.25885	0.10449	0.21361	0.12175	0.11139	0.14626	0.21027	0.16653	0.31656	0.19187	0.083579	0.017364	0.10524	0.10172	0.092582	-2.4271	-3.3542	-2.8125	-3.4354	-3.2417	-2.8792	-3.3021	-2.9792	-3.0062	-3.3688	-3.0833	-3.0438	-3.425	-2.8979	-3.3854	-3.1458	15.423	96.894	63.523	308.523	58.966	50.836	252.333	333.520	288.397	176.419	142.380	305.968	22.051	244.078	230.298	317.734	0.00096234	0.0010797	0.00012327	1392.5	1.5026e-06	5.7506e-06	1388.3	371.35	7.414e-06	1.1293e-05	426.01	142.59	123.01	42.287	8.6115e-06	52.175	0.00075552	0.00075868	0.00021043	1434.2	8.3036e-06	8.3218e-06	1430.4	384.3	8.3177e-06	8.2769e-06	443.49	148.73	128.36	44.403	8.2381e-06	55.03	-22.734	56.653	198.562	-10.002	56.506	128.070	-10.249	-5.376	60.324	130.009	-6.095	-1.255	-0.834	3.242	102.839	2.455	-8191	255	
526.351	1	1	0	0	0.18552	0.10895	0.1156	0.37947	0.32029	0.095091	0.20701	0.074493	0.033645	0.21211	0.18184	0.053245	0.23925	0.20349	0.13685	0.080237	-2.3896	-3.3396	-3.0229	-3.2896	-3.2604	-2.8958	-3.4479	-3.2333	-2.7979	-3.3167	-3.1333	-3.1667	-3.3729	-2.9083	-3.1583	-3.1979	288.794	164.447	236.294	311.654	46.779	93.049	263.786	39.199	122.591	175.305	286.178	103.232	330.956	297.038	128.501	-0.654	0.0013161	0.00068501	0.00010767	1392.8	7.0382e-06	1.0793e-05	1397.6	372.76	8.2076e-06	2.022e-06	425.64	142.02	123.27	42.559	5.9665e-06	52.349	0.00075018	0.00075455	0.00021103	1432.1	8.3282e-06	8.2487e-06	1432.4	384.94	8.2475e-06	8.3365e-06	443.51	148.76	128.58	44.48	8.2979e-06	55.119	7.200	-7.966	144.592	-10.125	101.812	122.185	-10.232	-5.460	138.477	191.817	-5.797	-1.352	-1.001	3.438	182.840	2.704	-8191	255	
526.447	1	1	0	0	0.17633	0.34248	0.051828	0.33867	0.14351	0.14138	0.10086	0.20088	0.039749	0.15719	0.21357	0.24482	0.14678	0.14291	0.057876	0.15011	-2.4562	-3.225	-2.9521	-3.1792	-3.2333	-2.7896	-3.3063	-3.3083	-2.8646	-3.4479	-3.1167	-2.9813	-3.4938	-2.8896	-3.0687	-3.1854	223.656	15.857	161.647	303.344	-14.384	252.968	-8.885	293.046	52.484	190.714	46.378	332.691	94.351	283.015	302.480	238.702	0.0010579	0.00056465	2.6001e-05	1394.5	7.9519e-06	8.2992e-06	1395.1	373.42	9.9139e-06	1.2938e-05	425.8	142.19	123.15	42.193	7.717e-06	52.237	0.00075354	0.00075597	0.00021122	1433.3	8.2412e-06	8.316e-06	1430.6	385.47	8.3387e-06	8.3498e-06	444.39	148.67	128.68	44.419	8.351e-06	55.143	-18.369	-15.080	290.739	-10.060	132.058	107.657	-10.226	-5.406	119.530	168.230	-6.196	-1.277	-1.021	3.385	79.616	2.643	-8191	255	
526.568	1	1	0	0	0.087947	0.26877	0.081868	0.15727	0.11466	0.17519	0.14169	0.17151	0.085188	0.12733	0.17843	0.10978	0.089251	0.13579	0.16479	0.049964	-2.3458	-3.2771	-3.0042	-3.1375	-3.4021	-3.0042	-3.2833	-3.4458	-2.8563	-3.2146	-3.2062	-3.0979	-3.3896	-2.9604	-3.1229	-3.3854	20.683	225.593	78.703	273.682	173.036	77.971	207.751	291.651	157.976	158.594	79.192	286.010	181.165	75.681	327.273	223.079	0.00093687	0.00087691	0.00030768	1392.1	3.0687e-06	8.279e-06	1394.8	371.84	9.2763e-06	1.0065e-05	427.1	141.94	123.29	42.232	8.8937e-06	52.291	0.00075676	0.00076068	0.00021258	1432.5	8.285e-06	8.2891e-06	1431.8	384.55	8.314e-06	8.3082e-06	444.16	148.74	128.65	44.407	8.3299e-06	55.002	-0.605	63.993	55.017	-10.099	53.170	142.092	-10.104	-5.446	177.275	159.301	-6.072	-1.570	-0.879	3.398	98.975	2.518	-8191	255	
526.664	1	1	0	0	0.17835	0.26914	0.22061	0.090174	0.44559	0.1227	0.23811	0.10846	0.16481	0.27915	0.093202	0.34952	0.32994	0.37018	0.11337	0.13291	-2.1417	-3.1958	-2.9417	-3.0625	-3.2729	-2.9417	-3.2146	-3.3729	-2.7854	-3.1958	-3.2333	-2.9375	-3.4688	-2.9437	-3.0104	-3.3104	235.769	128.364	148.769	274.896	85.362	281.658	289.034	18.573	112.448	25.479	-0.460	16.206	308.762	315.314	285.879	197.736	0.0011903	0.00087545	0.0002235	1396	8.0673e-07	6.1938e-06	1391.4	372	6.0591e-06	2.4323e-06	426.11	141.43	123.28	42.396	7.6387e-06	52.327	0.00075479	0.00076408	0.00021112	1433.7	8.3476e-06	8.3286e-06	1431.1	384.49	8.3551e-06	8.3801e-06	444.33	148.68	128.53	44.496	8.328e-06	55.066	6.523	47.407	75.849	-9.936	168.352	116.498	-10.103	-5.486	144.804	115.715	-5.962	-1.327	-0.986	3.464	149.658	2.525	-8191	255	
526.758	1	1	0	0	0.11516	0.06524	0.10116	0.39646	0.13699	0.23681	0.24367	0.2425	0.24156	0.057537	0.18175	0.38386	0.20187	0.24446	0.14659	0.27664	-2.4542	-3.1542	-3.1937	-2.9479	-3.3625	-3.1104	-2.9771	-3.2979	-2.7458	-3.0979	-3.275	-2.9188	-3.6229	-3.0312	-2.9875	-3.5187	132.556	320.074	220.202	-22.920	92.996	260.346	11.956	325.527	278.788	244.515	303.809	-17.339	-9.451	325.423	296.467	212.014	0.00088953	0.00021994	0.00012477	1393.7	3.3594e-06	4.3114e-06	1398.2	372.7	6.4443e-06	2.7267e-06	426.25	141.35	123.21	42.122	5.2463e-06	52.271	0.0007573	0.0007596	0.0002123	1434.3	8.3029e-06	8.299e-06	1433.2	384.71	8.3426e-06	8.3702e-06	443.98	148.77	128.58	44.406	8.3347e-06	55.087	328.226	169.515	292.646	-10.035	-22.008	107.903	-10.198	-5.290	166.730	131.936	-5.693	-1.286	-0.722	3.360	167.540	2.630	-8191	255	
526.879	1	1	0	0	0.10924	0.12502	0.18025	0.21428	0.31595	0.32946	0.15839	0.075583	0.15267	0.10826	0.040217	0.3169	0.15049	0.32141	0.10389	0.17479	-2.6	-3.2333	-3.2313	-3.0521	-3.1979	-3.0958	-3.0542	-3.4479	-2.9146	-3.0563	-3.3021	-2.8604	-3.4562	-3.2604	-2.7208	-3.2604	37.543	24.638	-15.637	314.452	-4.348	287.098	299.882	236.004	90.595	303.726	124.136	238.004	274.384	328.972	231.641	12.824	0.00074222	0.00051953	0.00013125	1395.7	4.9862e-06	8.9081e-06	1395.5	374.35	6.246e-06	1.0085e-05	424.81	141.81	123.28	42.335	8.2543e-07	52.237	0.0007536	0.00075873	0.00021063	1433	8.3275e-06	8.3094e-06	1433	385.34	8.237e-06	8.2958e-06	443.23	148.4	128.45	44.452	8.2268e-06	55.072	327.211	-14.900	96.063	-10.058	157.461	192.548	-10.179	-5.507	118.627	67.805	-6.056	-1.256	-1.359	3.516	-6.490	2.468	-8191	255	
526.975	1	1	0	0	0.12377	0.053059	0.1896	0.32974	0.15503	0.24584	0.29628	0.19909	0.1587	0.15593	0.08746	0.057009	0.1722	0.14478	0.18895	0.30954	-2.6396	-3.0354	-3.2958	-2.9562	-3.2354	-2.9562	-3.1917	-3.475	-3.0021	-3.0854	-3.4958	-2.9646	-3.4021	-3.2333	-2.9062	-3.2438	83.583	20.299	293.527	294.164	133.363	244.550	271.003	315.757	104.911	154.602	291.848	291.110	260.311	332.281	322.444	234.305	0.00063734	0.00081327	0.00020818	1392.8	1.9198e-06	2.9458e-06	1395.8	371.96	8.4718e-06	1.2008e-05	425.53	142.59	123.88	42.406	8.3548e-06	52.277	0.00075599	0.00075435	0.0002094	1433.5	8.2152e-06	8.2451e-06	1430.5	385.09	8.305e-06	8.3902e-06	444.27	149.11	128.75	44.453	8.3543e-06	55.148	-11.519	73.464	201.117	-10.072	226.227	108.583	-10.211	-5.205	80.562	157.014	-6.126	-1.325	-1.019	3.331	87.597	2.627	-8191	255	
527.047	1	1	0	0	0.084246	0.22405	0.17892	0.12879	0.24184	0.094195	0.23291	0.23171	0.27946	0.1752	0.14769	0.18911	0.16959	0.32083	0.14018	0.1376	-2.6125	-2.8812	-3.35	-2.9771	-3.1583	-3.3917	-3.0229	-3.3438	-3.0229	-3.1729	-3.5854	-2.9938	-3.2271	-3.2375	-2.925	-3.4583	321.670	166.453	210.585	324.599	175.791	246.941	237.790	-3.362	205.134	153.420	-15.984	326.969	260.463	256.543	62.650	185.942	0.0011554	0.0005883	0.00011708	1398.6	7.7525e-06	4.6891e-06	1397.3	371.82	1.7201e-06	9.2234e-06	425.47	141.75	123.65	42.228	8.9728e-06	52.105	0.0007532	0.00076389	0.00021035	1433.7	8.3259e-06	8.2531e-06	1432.3	384.42	8.3093e-06	8.2758e-06	443.9	148.95	128.73	44.424	8.3025e-06	55.116	0.440	85.120	28.969	-10.192	55.248	219.617	-10.332	-5.388	243.444	24.096	-6.203	-1.264	-1.020	3.497	110.198	2.975	-8191	255	
527.143	1	1	0	0	0.21607	0.24409	0.27212	0.094323	0.19024	0.12514	0.14954	0.19244	0.12193	0.16356	0.18902	0.22725	0.35208	0.10774	0.095334	0.22286	-2.5417	-2.8417	-3.2917	-3.025	-3.1875	-3.1833	-2.9729	-3.2375	-3.0438	-2.8021	-3.3542	-2.8937	-3.1083	-3.2479	-2.8771	-3.1646	136.744	42.782	155.594	314.835	273.398	336.469	264.171	328.308	283.583	313.099	297.060	52.531	-13.770	330.935	54.675	276.198	0.0011833	0.00092584	0.00010777	1392.9	3.705e-06	3.3934e-06	1399.5	372.35	1.2656e-05	6.5538e-06	425.09	142.05	122.81	42.342	2.0905e-06	52.312	0.00075907	0.00075669	0.00021157	1434.5	8.3467e-06	8.3422e-06	1432.7	384.69	8.3073e-06	8.3577e-06	444.18	148.92	128.61	44.424	8.3316e-06	55.132	323.393	77.126	315.078	-10.221	10.202	180.869	-10.267	-5.512	128.470	219.423	-5.554	-1.619	-1.053	3.336	144.916	2.660	-8191	255	
527.263	1	1	0	0	0.32649	0.14466	0.20989	0.24008	0.23968	0.14034	0.39504	0.1225	0.16094	0.1609	0.13777	0.28225	0.072195	0.16567	0.25781	0.084199	-2.6833	-2.9	-3.2604	-3.1583	-3.0833	-3.3375	-3.0833	-3.2208	-3.1604	-2.9792	-3.2146	-3.0375	-3.0021	-3.3979	-2.7167	-3.1854	157.767	29.192	68.145	332.122	255.673	297.882	231.508	218.365	55.817	256.700	278.987	272.259	9.916	261.251	241.159	71.672	0.0013607	0.0006513	0.00011329	1395.2	4.8287e-06	5.7539e-06	1394.4	371.55	9.7098e-06	1.1668e-05	426.13	141.96	123.72	42.077	9.016e-06	52.366	0.00076487	0.00076494	0.00021441	1435.6	8.387e-06	8.4204e-06	1432.8	385.07	8.4186e-06	8.4093e-06	444.08	148.72	128.94	44.442	8.3929e-06	55.126	-15.344	60.168	62.170	-10.140	329.959	176.560	-10.273	-5.475	156.198	93.829	-5.935	-1.385	-0.968	3.531	113.252	2.652	-8191	255	
527.360	1	1	0	0	0.08579	0.30803	0.1343	0.30489	0.079525	0.12763	0.23041	0.29787	0.077022	0.020359	0.082995	0.14617	0.3406	0.23014	0.13293	0.17395	-2.7646	-2.5687	-3.1958	-3.1958	-2.9583	-3.3104	-3.0812	-3.2687	-3.1167	-2.8438	-3.4354	-3.0875	-2.8792	-3.4021	-3.0167	-3.2167	193.824	181.907	270.951	325.442	208.925	41.227	292.879	253.339	176.795	315.367	269.589	317.533	328.377	333.766	96.819	282.904	0.0006459	0.00015796	0.0001775	1391.1	4.7992e-06	5.5123e-06	1393.6	371.64	1.269e-05	2.9181e-06	426.56	142.27	123.16	42.224	8.5979e-07	52.384	0.0007655	0.00076913	0.00021501	1434.1	8.4295e-06	8.417e-06	1430.9	384.81	8.468e-06	8.4529e-06	444.55	148.99	128.69	44.455	8.4931e-06	55.207	0.745	206.517	90.522	-10.101	164.030	151.516	-10.333	-5.407	48.359	311.660	-5.896	-1.327	-1.046	3.709	86.549	2.528	-8191	255	
527.456	1	1	0	0	0.13682	0.048653	0.22968	0.26973	0.1617	0.24493	0.10144	0.086523	0.18276	0.17255	0.14442	0.20093	0.31218	0.32786	0.18234	0.1478	-2.8187	-2.6958	-3.2542	-3.3271	-2.8604	-3.1042	-3.2687	-3.2125	-3.2771	-3.0354	-3.1875	-3.2708	-2.9833	-3.2708	-2.8792	-3.0312	140.622	221.229	61.146	-17.244	193.420	269.847	261.629	315.585	323.557	290.205	236.832	271.266	289.608	305.311	179.016	264.846	0.00062872	0.0001622	0.00030993	1394.8	1.2251e-05	2.6719e-06	1391.6	371.9	1.6267e-06	2.4126e-06	427.96	141.22	123.42	42.303	8.4143e-06	52.364	0.00077165	0.00077284	0.00021531	1434.7	8.4638e-06	8.5378e-06	1432.3	384.88	8.4751e-06	8.4492e-06	444.7	148.66	128.58	44.44	8.4876e-06	55.218	-17.238	155.570	25.416	-10.068	69.198	95.717	-10.199	-5.431	251.220	105.121	-5.803	-1.648	-0.841	3.652	149.439	2.269	-8191	255	
527.576	1	1	0	0	0.1321	0.2367	0.18572	0.079932	0.19733	0.14568	0.43228	0.055524	0.094786	0.19875	0.077192	0.032258	0.56269	0.1713	0.044776	0.16826	-2.9896	-2.9021	-3.1354	-3.4375	-2.8208	-3.225	-3.2208	-3.0563	-3.1271	-2.8542	-3.2604	-3.1271	-2.7354	-3.4229	-2.9271	-2.7375	254.067	273.199	319.338	222.368	57.904	82.947	317.978	300.509	40.326	118.534	182.708	83.524	311.293	312.609	209.410	258.891	0.00076039	0.00099579	0.00015654	1392.9	9.9643e-06	4.5434e-06	1394.7	372.81	5.8597e-06	5.1462e-06	425.38	142.49	123.17	42.068	6.7797e-06	52.182	0.00077243	0.00077359	0.00021617	1433.3	8.4681e-06	8.4772e-06	1432.1	385.13	8.4758e-06	8.4936e-06	444.48	149.06	128.5	44.39	8.5014e-06	55.225	325.630	7.392	49.142	-10.083	28.090	138.751	-10.276	-5.395	206.562	224.550	-5.995	-1.393	-0.874	3.553	8.672	2.459	-8191	255	
527.648	1	1	0	0	0.13294	0.064417	0.1462	0.30227	0.14499	0.12862	0.20519	0.16043	0.083825	0.085958	0.094769	0.16582	0.25486	0.14615	0.15823	0.26247	-2.9062	-2.9188	-2.9146	-3.4688	-2.7583	-3.2646	-3.0979	-2.9271	-3.4729	-2.8896	-3.0417	-3.3292	-3.0042	-3.2333	-3.0708	-2.7604	194.016	329.530	253.836	292.388	210.851	260.010	247.913	0.357	90.413	233.701	7.546	278.751	236.535	323.982	35.545	268.329	0.0013547	0.00032138	0.00011955	1396.4	3.9357e-06	3.6704e-06	1394.3	371.2	1.1443e-05	8.8788e-06	424.9	142.36	123.13	42.246	4.317e-06	52.262	0.00076986	0.00077567	0.00021619	1435	8.4844e-06	8.5598e-06	1433.3	385.08	8.5682e-06	8.5321e-06	444.09	148.81	128.65	44.477	8.448e-06	55.17	-13.718	316.890	54.477	-9.908	149.064	171.044	-10.320	-5.396	154.608	139.189	-5.934	-1.600	-0.804	3.221	116.594	2.757	-8191	255	
527.744	1	1	0	0	0.021649	0.23197	0.18127	0.22754	0.085758	0.14518	0.23239	0.31375	0.12607	0.2438	0.081347	0.16221	0.20882	0.13567	0.19593	0.31849	-2.8917	-2.9604	-2.9146	-3.5312	-2.7625	-3.1604	-3.2958	-2.9458	-3.2083	-3.0479	-3.075	-3.3937	-3.0375	-3.3292	-3.2687	-2.9125	207.785	275.457	303.355	307.340	97.113	6.261	290.848	234.930	244.635	96.806	20.231	312.140	25.645	4.898	164.184	298.842	0.00071331	0.00031054	9.9471e-05	1393.3	8.2296e-06	5.0314e-06	1391.2	371.17	5.9351e-06	4.2753e-06	424.1	141.73	122.82	42.19	5.774e-06	51.966	0.00077093	0.00077462	0.0002163	1435	8.4704e-06	8.4548e-06	1432.8	384.65	8.4609e-06	8.467e-06	443.64	148.75	128.53	44.352	8.4875e-06	55.055	324.083	16.289	-7.449	-10.200	0.666	90.668	-10.318	-5.337	138.837	212.425	-5.938	-1.585	-0.719	3.589	140.179	2.746	-8191	255	
527.840	1	1	0	0	0.10495	0.28066	0.037396	0.20911	0.1143	0.28483	0.18793	0.28985	0.1437	0.055872	0.11201	0.20036	0.081344	0.14702	0.17104	0.032112	-2.7062	-2.9667	-2.8812	-3.4854	-2.7792	-3.1354	-3.475	-2.8667	-3.3958	-2.9771	-3.1417	-3.3688	-3.0375	-3.2604	-3.1333	-3.0542	20.472	276.685	333.764	305.749	98.604	194.701	303.912	266.544	-0.047	76.371	311.355	221.354	259.063	135.412	0.128	-1.184	0.0012209	0.0011655	0.00011505	1392.8	4.3144e-06	1.3576e-05	1388.4	371.35	4.3427e-06	2.7331e-06	427.73	141.77	122.67	42.136	3.3436e-06	52.363	0.00077311	0.0007802	0.0002163	1432.2	8.5116e-06	8.5434e-06	1430.8	384.94	8.543e-06	8.5577e-06	445.34	148.9	128.67	44.429	8.5075e-06	55.332	-18.559	23.508	68.134	-10.003	94.792	236.071	-10.104	-5.072	134.877	31.102	-5.942	-1.602	-0.963	3.546	150.803	2.572	-8191	255	
527.959	1	1	0	0	0.23916	0.12425	0.26999	0.16414	0.10729	0.36204	0.048512	0.10852	0.11742	0.049618	0.1223	0.18354	0.41644	0.36766	0.057754	0.16016	-2.6688	-3.0625	-3.0583	-3.5917	-3.0292	-3.0333	-3.5396	-3.2125	-3.2375	-3.3292	-2.8792	-3.3604	-3.2938	-3.1729	-3.2021	-2.8708	327.575	162.041	271.612	303.361	62.982	133.959	225.030	315.123	135.157	29.753	305.720	273.844	273.787	32.516	-14.821	293.061	0.001108	0.00027371	0.00013705	1394.7	3.3089e-06	5.9255e-06	1394.7	373.21	9.6016e-06	3.0948e-06	424.94	141.36	123.54	42.26	3.1078e-06	52.288	0.00077404	0.00077876	0.00021546	1434.5	8.4935e-06	8.5097e-06	1433.8	385.39	8.4892e-06	8.5743e-06	443.71	148.6	128.73	44.438	8.454e-06	55.143	9.592	-1.177	79.251	-10.105	44.793	101.944	-10.109	-5.303	58.621	109.423	-5.959	-1.281	-1.064	3.581	130.377	2.590	-8191	255	
528.055	1	1	0	0	0.27711	0.22237	0.093889	0.27885	0.092271	0.1708	0.24651	0.21526	0.027457	0.024536	0.11696	0.27494	0.20995	0.22524	0.10215	0.080139	-2.8479	-3.1708	-2.8042	-3.4979	-2.9417	-3.0229	-3.5854	-3.2396	-3.1063	-3.0729	-3.0917	-3.3333	-3.1104	-3.1688	-3.3354	-2.9646	173.344	-17.994	95.628	274.838	187.370	294.016	211.550	273.142	268.071	246.216	232.840	269.303	297.186	292.283	112.648	220.947	0.0011108	4.7398e-05	0.00017456	1394.6	6.2845e-06	4.3582e-06	1395.9	372.44	4.4937e-06	7.4383e-06	424.81	141.56	123.05	42.323	7.602e-06	52.325	0.00077879	0.00077648	0.0002156	1435.2	8.5459e-06	8.5888e-06	1433.9	385.36	8.5908e-06	8.5606e-06	444.51	148.82	128.75	44.5	8.538e-06	55.117	-6.811	54.647	65.680	-10.045	125.230	154.297	-10.251	-5.393	224.420	118.920	-5.818	-1.126	-1.198	3.752	139.407	2.567	-8191	255	
528.151	1	1	0	0	0.13721	0.1503	0.27241	0.25205	0.10332	0.32591	0.045313	0.10746	0.30589	0.23394	0.1457	0.17312	0.25505	0.30739	0.086348	0.25723	-2.8646	-3.2104	-2.8083	-3.4458	-3.0312	-2.8896	-3.5792	-3.0167	-3.0854	-3.3333	-2.9917	-3.1875	-3.2125	-3.0646	-3.5062	-3.1042	280.562	245.610	10.348	299.653	169.507	-3.370	-2.265	295.443	106.952	129.522	292.491	237.602	322.929	301.856	163.414	-19.994	0.00082443	0.0006581	8.3242e-05	1393.5	1.4123e-05	8.7057e-06	1395.4	372.28	2.0642e-05	7.7615e-06	427.17	141.8	122.78	42.367	8.8535e-06	52.101	0.00077703	0.0007756	0.00021637	1434	8.5836e-06	8.5284e-06	1433	385.34	8.5761e-06	8.565e-06	444.9	148.99	128.67	44.487	8.5407e-06	55.164	-7.984	56.961	53.862	-10.185	93.072	176.007	-10.365	-5.497	76.034	122.621	-5.904	-1.552	-0.842	3.520	72.139	2.664	-8191	255	
528.248	1	1	0	0	0.1722	0.14827	0.199	0.10273	0.17069	0.1849	0.24538	0.077753	0.23531	0.19312	0.49392	0.27343	0.16054	0.28806	0.11206	0.0020518	-2.55	-3.3375	-3.0167	-3.3396	-3.2687	-2.9521	-3.4542	-3.2188	-2.9125	-3.3042	-2.9167	-3.1708	-3.4646	-2.9292	-3.4083	-3.125	159.403	-14.208	-15.824	-12.244	329.009	67.628	251.008	155.743	213.982	326.616	47.647	303.502	1.823	270.015	245.300	180.000	0.0011148	0.00026767	0.00022205	1395.4	9.8889e-06	5.4313e-06	1394.6	371.81	8.4634e-06	2.5504e-06	427.09	141.68	123.22	42.18	3.5899e-06	52.426	0.00077714	0.00077606	0.00021674	1434.8	8.5026e-06	8.447e-06	1431.4	384.77	8.5085e-06	8.4674e-06	444.33	148.74	128.67	44.392	8.4501e-06	55.216	329.169	315.445	196.589	-9.981	43.073	200.444	-10.111	-5.538	175.997	52.210	-6.226	-1.518	-1.101	3.572	297.842	2.296	-8191	255	
528.344	1	1	0	0	0.2307	0.16194	0.19759	0.15098	0.26295	0.16481	0.17927	0.30877	0.26064	0.096997	0.12468	0.32582	0.12046	0.12717	0.088034	0.24037	-2.4458	-3.2729	-2.8792	-3.3208	-3.0312	-2.825	-3.5271	-3.1	-2.9125	-3.4375	-2.9792	-3.1604	-3.4562	-2.7667	-3.2146	-3.0771	91.717	156.041	157.166	313.586	317.859	24.976	221.145	289.289	301.992	161.269	308.569	204.108	91.347	271.294	117.264	283.472	0.0011223	0.00056642	0.00030353	1394.8	5.2336e-06	2.1537e-06	1391.2	371.8	8.2137e-06	7.2541e-06	426.54	141.47	123.44	42.185	6.2322e-06	52.213	0.00077145	0.00077231	0.00021433	1433.8	8.4331e-06	8.4271e-06	1429.7	384.67	8.3835e-06	8.4476e-06	444.43	148.56	128.64	44.45	8.5049e-06	55.154	-16.610	39.604	77.253	-10.203	178.936	191.661	-10.149	-5.513	65.399	135.339	-5.881	-1.345	-1.015	3.292	106.839	2.891	-8191	255	
528.440	1	1	0	0	0.090899	0.24038	0.2267	0.33602	0.14636	0.14165	0.28685	0.10227	0.10114	0.16291	0.23601	0.18026	0.20961	0.24783	0.21079	0.072355	-2.4729	-3.1917	-3.0271	-3.2729	-3.2771	-2.9	-3.4625	-3.2875	-3.0042	-3.1937	-3.1021	-3.0542	-3.4562	-2.9938	-3.1625	-3.25	234.328	134.980	145.061	305.575	63.583	261.594	269.500	251.313	90.195	6.481	199.590	45.700	280.903	-9.479	225.823	298.089	0.0010078	0.00064496	0.00011492	1396.2	2.6627e-06	8.4041e-06	1396.7	373.67	8.561e-06	3.0232e-06	425.19	142.28	123.36	42.308	9.5156e-07	52.442	0.00077191	0.00077252	0.0002161	1435.6	8.5077e-06	8.5235e-06	1433.2	385.74	8.4027e-06	8.4184e-06	444.42	149.32	128.78	44.411	8.5021e-06	55.24	-6.111	29.880	145.069	-10.285	24.697	176.750	-10.171	-5.340	150.501	56.058	-5.924	-1.509	-0.835	3.465	20.011	2.424	-8191	255	
528.561	1	1	0	0	0.21055	0.06169	0.11806	0.090715	0.051026	0.027742	0.25146	0.15205	0.29255	0.072844	0.15782	0.12917	0.15153	0.17579	0.076644	0.1433	-2.3042	-3.2042	-2.9417	-3.0958	-3.4167	-2.9667	-3.2604	-3.4833	-2.8708	-3.1771	-3.1771	-2.9458	-3.5979	-2.7812	-3.1	-3.2896	198.423	71.990	-5.841	-0.669	90.081	21.310	263.331	239.539	52.066	155.641	-9.015	276.021	286.649	277.971	151.582	284.346	0.00082194	0.00072069	0.0001746	1393.2	5.8918e-06	1.2211e-05	1394.2	372.28	7.3159e-06	9.7999e-06	426.56	141.24	123.63	42.255	2.0052e-06	52.054	0.00076912	0.0007748	0.00021563	1433.4	8.4232e-06	8.4401e-06	1432.5	385.3	8.435e-06	8.4386e-06	444.38	148.51	128.73	44.394	8.4192e-06	55.094	-10.099	324.923	55.964	-9.962	142.390	163.364	-10.249	-5.248	50.085	177.252	-6.134	-1.289	-0.882	3.552	33.638	2.689	-8191	255	
528.657	1	1	0	0	0.13763	0.10098	0.22984	0.25648	0.060669	0.077911	0.26665	0.21298	0.11819	0.082631	0.24328	0.41525	0.38178	0.29441	0.087206	0.127	-2.4417	-3.1396	-3.0792	-3.1042	-3.3333	-2.8396	-3.2896	-3.4771	-2.9396	-3.2375	-3.2521	-2.9271	-3.3854	-3.1188	-3.0958	-3.4021	24.928	205.739	150.533	259.313	65.776	58.686	308.926	293.496	175.141	188.084	262.893	311.043	325.072	288.248	60.823	294.776	0.00092981	0.00012609	0.00023159	1394.2	9.9942e-06	4.2576e-06	1393.9	372.64	8.0387e-06	4.6483e-06	426.33	142.1	122.69	42.292	1.074e-05	52.152	0.00076059	0.00076792	0.00021393	1433.8	8.3383e-06	8.4123e-06	1432.2	385.08	8.3981e-06	8.4529e-06	444.17	148.93	128.67	44.48	8.5078e-06	55.148	-9.326	277.453	-10.051	-10.009	95.338	236.506	-10.413	-5.417	72.052	139.818	-6.223	-1.559	-0.782	3.389	140.536	2.598	-8191	255	
528.751	1	1	0	0	0.15196	0.043205	0.20803	0.4142	0.22922	0.22633	0.13324	0.14273	0.20348	0.10656	0.048483	0.23296	0.17663	0.069497	0.20599	0.1417	-2.3854	-3.2521	-3.1562	-3.0667	-3.3875	-3.0333	-3.2521	-3.4833	-2.8	-3.2354	-3.3063	-2.9771	-3.5187	-3.1	-3.025	-3.5062	203.048	270.962	230.390	332.897	268.593	199.234	275.179	285.266	288.190	4.447	69.891	110.070	248.080	326.957	235.953	246.857	0.00048314	0.0004111	0.00024677	1393.5	4.0993e-06	6.1827e-06	1386	371.57	8.7987e-06	9.5025e-06	428.49	142.08	123.76	42.003	7.0443e-06	52.24	0.00076636	0.00077377	0.00021568	1433.4	8.3996e-06	8.4196e-06	1430.2	384.95	8.4343e-06	8.4555e-06	445.12	148.73	128.93	44.372	8.4159e-06	55.071	-20.392	3.609	125.122	-9.942	248.102	169.868	-10.181	-5.321	112.820	130.301	-6.122	-1.486	-0.872	3.344	131.916	2.556	-8191	255	
528.847	1	1	0	0	0.29517	0.30655	0.028179	0.19634	0.046416	0.1032	0.12527	0.14768	0.2899	0.18614	0.20012	0.22162	0.1475	0.37257	0.33686	0.2375	-2.4271	-3.15	-3.1229	-2.9271	-3.2708	-3.1771	-3.125	-3.3583	-3.0042	-3.1958	-3.3208	-3.0187	-3.125	-3.1479	-2.9208	-3.3417	332.848	307.837	43.075	305.139	183.368	325.901	284.616	286.778	208.692	312.803	131.187	260.297	250.643	23.137	334.612	262.737	0.0010983	0.00071607	0.00031873	1398.7	2.5276e-06	4.3524e-06	1392.1	371.77	4.7009e-06	9.4138e-06	427.95	142.38	123.76	41.996	4.4736e-06	52.186	0.00076686	0.00076712	0.00021324	1435.2	8.4069e-06	8.4442e-06	1430.5	384.66	8.325e-06	8.4364e-06	444.61	148.76	128.79	44.385	8.35e-06	55.09	-18.356	30.377	41.126	-9.980	69.808	180.971	-10.217	-5.347	58.631	128.336	-5.980	-1.635	-0.896	3.642	114.070	2.546	-8191	255	
528.943	1	1	0	0	0.11091	0.10237	0.13971	0.40981	0.044567	0.097603	0.20836	0.17716	0.15203	0.093157	0.076665	0.10507	0.020399	0.14796	0.18412	0.072281	-2.4771	-3.0167	-3.1875	-3.0625	-3.2104	-3.1833	-3.2583	-3.4479	-3.0312	-3.0125	-3.2854	-2.8292	-3.3875	-3.1188	-2.9083	-3.4792	203.092	135.364	203.405	267.633	46.301	-0.854	227.975	330.771	89.325	122.628	148.418	188.630	1.322	220.290	190.494	315.323	0.00089881	0.00012233	4.3321e-05	1394.8	5.5458e-06	4.279e-06	1396.5	373.09	1.6181e-05	2.3104e-06	428.66	141.69	123.18	42.453	3.7854e-06	52.25	0.00075815	0.0007613	0.00021209	1434.2	8.3298e-06	8.3097e-06	1433.1	385.36	8.2913e-06	8.3798e-06	444.79	148.76	128.52	44.427	8.3223e-06	55.097	334.698	278.008	55.802	-10.138	138.862	215.199	-10.132	-5.403	107.214	235.375	-5.937	-1.152	-0.724	3.734	49.535	2.521	-8191	255	
#DATA ENDS
