BOXY.EXE: ISS Imagent and Oximeter Data Acquisition Program Version 0.80
Ascii Record File

#ACQ INFORMATION
2  Detector Channels 
16  External MUX Channels 
1  Auxiliary Channels 
5000  Waveform (CCF) Frequency (Hz)
1  Waveforms Skipped 
30  Waveforms Averaged 
1  Cycles Averaged 
16  Acquisitions per Waveform 
10.0806  Updata Rate (Hz) 

#FILE INFORMATION
TRUE -- External MUX Channel results are PARSED.
FALSE -- AC DC and Phase are NOT grouped.
TRUE -- Companion Program Settings File CREATED.
FALSE -- AC data not excluded
FALSE -- DC data not excluded
FALSE -- Phase data not excluded
FALSE -- Auxillary Chn. data not excluded
Tab delimiters

#CALIBRATION STATE
TRUE -- Waveform Calibration Values APPLIED.


#AUX CALIBRATION VALUES
Val Type	aux-1	

Term	1.0000e+00	
Factor	0.0000e+00	


#WF CALIBRATION VALUES
A = Detector Channel
Val Type	A-AC1	A-AC2	A-AC3	A-AC4	A-AC5	A-AC6	A-AC7	A-AC8	A-AC9	A-AC10	A-AC11	A-AC12	A-AC13	A-AC14	A-AC15	A-AC16	A-DC1	A-DC2	A-DC3	A-DC4	A-DC5	A-DC6	A-DC7	A-DC8	A-DC9	A-DC10	A-DC11	A-DC12	A-DC13	A-DC14	A-DC15	A-DC16	A-Ph1	A-Ph2	A-Ph3	A-Ph4	A-Ph5	A-Ph6	A-Ph7	A-Ph8	A-Ph9	A-Ph10	A-Ph11	A-Ph12	A-Ph13	A-Ph14	A-Ph15	A-Ph16	

Term	0.00000e+00	0.00000e+00	0.00000e+00	0.00000e+00	0.00000e+00	0.00000e+00	0.00000e+00	0.00000e+00	0.00000e+00	0.00000e+00	0.00000e+00	0.00000e+00	0.00000e+00	0.00000e+00	0.00000e+00	0.00000e+00	0.00000e+00	0.00000e+00	0.00000e+00	0.00000e+00	0.00000e+00	0.00000e+00	0.00000e+00	0.00000e+00	0.00000e+00	0.00000e+00	0.00000e+00	0.00000e+00	0.00000e+00	0.00000e+00	0.00000e+00	0.00000e+00	0.00000e+00	0.00000e+00	0.00000e+00	0.00000e+00	0.00000e+00	0.00000e+00	0.00000e+00	0.00000e+00	0.00000e+00	0.00000e+00	0.00000e+00	0.00000e+00	0.00000e+00	0.00000e+00	0.00000e+00	0.00000e+00	
Factor	1.00000e+00	1.00000e+00	1.00000e+00	1.00000e+00	1.00000e+00	1.00000e+00	1.00000e+00	1.00000e+00	1.00000e+00	1.00000e+00	1.00000e+00	1.00000e+00	1.00000e+00	1.00000e+00	1.00000e+00	1.00000e+00	1.00000e+00	1.00000e+00	1.00000e+00	1.00000e+00	1.00000e+00	1.00000e+00	1.00000e+00	1.00000e+00	1.00000e+00	1.00000e+00	1.00000e+00	1.00000e+00	1.00000e+00	1.00000e+00	1.00000e+00	1.00000e+00	X	X	X	X	X	X	X	X	X	X	X	X	X	X	X	X	

B = Detector Channel
Val Type	B-AC1	B-AC2	B-AC3	B-AC4	B-AC5	B-AC6	B-AC7	B-AC8	B-AC9	B-AC10	B-AC11	B-AC12	B-AC13	B-AC14	B-AC15	B-AC16	B-DC1	B-DC2	B-DC3	B-DC4	B-DC5	B-DC6	B-DC7	B-DC8	B-DC9	B-DC10	B-DC11	B-DC12	B-DC13	B-DC14	B-DC15	B-DC16	B-Ph1	B-Ph2	B-Ph3	B-Ph4	B-Ph5	B-Ph6	B-Ph7	B-Ph8	B-Ph9	B-Ph10	B-Ph11	B-Ph12	B-Ph13	B-Ph14	B-Ph15	B-Ph16	

Term	0.00000e+00	0.00000e+00	0.00000e+00	0.00000e+00	0.00000e+00	0.00000e+00	0.00000e+00	0.00000e+00	0.00000e+00	0.00000e+00	0.00000e+00	0.00000e+00	0.00000e+00	0.00000e+00	0.00000e+00	0.00000e+00	0.00000e+00	0.00000e+00	0.00000e+00	0.00000e+00	0.00000e+00	0.00000e+00	0.00000e+00	0.00000e+00	0.00000e+00	0.00000e+00	0.00000e+00	0.00000e+00	0.00000e+00	0.00000e+00	0.00000e+00	0.00000e+00	7.91608e+01	-1.57426e+02	-1.25790e+02	-1.81071e+02	-1.33254e+02	-4.33174e+01	-1.58384e+02	-1.62015e+02	-9.85754e+01	-5.35677e+01	-1.74335e+02	-1.74194e+02	-1.80052e+02	-1.76373e+02	-8.84111e+01	-1.49596e+02	
Factor	7.28416e-05	1.18705e-04	3.43277e-05	1.55421e-01	1.40958e-06	1.37877e-06	1.77198e-01	4.90421e-02	1.73132e-06	1.35496e-06	9.21222e-02	3.70337e-02	2.12366e-02	8.91378e-03	1.18770e-06	1.32070e-02	1.01932e-06	1.04090e-06	2.89617e-07	7.87538e-02	1.13864e-08	1.14252e-08	8.37802e-02	2.48126e-02	1.13964e-08	1.14369e-08	4.41850e-02	1.75058e-02	1.07770e-02	4.46422e-03	1.14014e-08	6.34155e-03	X	X	X	X	X	X	X	X	X	X	X	X	X	X	X	X	



#DISTANCE SETTINGS
A = Detector Channel
A-1	A-2	A-3	A-4	A-5	A-6	A-7	A-8	A-9	A-10	A-11	A-12	A-13	A-14	A-15	A-16	

2.5000e+00	3.0000e+00	2.5000e+00	3.0000e+00	2.0000e+00	3.0000e+00	1.5000e+00	3.0000e+00	3.0000e+00	3.0000e+00	3.0000e+00	3.0000e+00	3.0000e+00	3.0000e+00	1.5000e+00	3.0000e+00	

B = Detector Channel
B-1	B-2	B-3	B-4	B-5	B-6	B-7	B-8	B-9	B-10	B-11	B-12	B-13	B-14	B-15	B-16	

1.0000e+01	1.0000e+01	1.0000e+01	1.4400e+00	1.0000e+01	1.0000e+01	1.5100e+00	1.9400e+00	1.0000e+01	1.0000e+01	1.9900e+00	2.4900e+00	2.4100e+00	2.9000e+00	1.0000e+01	2.9800e+00	




#DATA BEGINS
time	group	step	mark	flag	A-AC1	A-AC2	A-AC3	A-AC4	A-AC5	A-AC6	A-AC7	A-AC8	A-AC9	A-AC10	A-AC11	A-AC12	A-AC13	A-AC14	A-AC15	A-AC16	A-DC1	A-DC2	A-DC3	A-DC4	A-DC5	A-DC6	A-DC7	A-DC8	A-DC9	A-DC10	A-DC11	A-DC12	A-DC13	A-DC14	A-DC15	A-DC16	A-Ph1	A-Ph2	A-Ph3	A-Ph4	A-Ph5	A-Ph6	A-Ph7	A-Ph8	A-Ph9	A-Ph10	A-Ph11	A-Ph12	A-Ph13	A-Ph14	A-Ph15	A-Ph16	B-AC1	B-AC2	B-AC3	B-AC4	B-AC5	B-AC6	B-AC7	B-AC8	B-AC9	B-AC10	B-AC11	B-AC12	B-AC13	B-AC14	B-AC15	B-AC16	B-DC1	B-DC2	B-DC3	B-DC4	B-DC5	B-DC6	B-DC7	B-DC8	B-DC9	B-DC10	B-DC11	B-DC12	B-DC13	B-DC14	B-DC15	B-DC16	B-Ph1	B-Ph2	B-Ph3	B-Ph4	B-Ph5	B-Ph6	B-Ph7	B-Ph8	B-Ph9	B-Ph10	B-Ph11	B-Ph12	B-Ph13	B-Ph14	B-Ph15	B-Ph16	aux-1	digaux	

611.953	1	1	0	768	0.15822	0.1447	0.082728	0.063859	0.098629	0.27161	0.081926	0.041985	0.14734	0.18949	0.26697	0.18374	0.109	0.19468	0.38612	0.28809	-2.6875	-2.9583	-3.5083	-2.9625	-2.8167	-3.3021	-3.0292	-3.2792	-3.2562	-2.8021	-3.325	-3.0854	-3.1042	-3.3479	-2.7625	-3.3646	179.508	74.858	250.470	189.746	2.593	-103.965	234.181	-68.798	157.889	189.378	149.295	-44.545	116.619	-99.114	222.376	139.359	0.00048797	0.00010289	4.1313e-05	1175.7	8.1794e-07	1.5217e-06	1276.6	244.92	8.4528e-06	5.0341e-06	307.6	85.576	67.594	20.2	1.5856e-06	27.314	0.00020196	0.00019769	5.4391e-05	1159.3	2.1827e-06	2.1741e-06	1254.6	243.68	2.136e-06	2.1801e-06	302.36	84.883	67.685	20.316	2.1403e-06	27.627	25.296	0.851	5.252	-96.078	155.141	78.481	-96.226	-88.926	212.880	135.973	-88.964	-82.458	-81.907	-75.187	-57.019	-75.549	-8191	255	
612.049	1	1	0	0	0.073452	0.054021	0.11591	0.13429	0.19797	0.16961	0.20483	0.050627	0.26822	0.31089	0.061247	0.17844	0.21719	0.14819	0.081055	0.10382	-2.9417	-2.8521	-3.3333	-3.0979	-2.9104	-3.4417	-3.0479	-3.0854	-3.3333	-2.7125	-3.3729	-3.3021	-3.0396	-3.6562	-2.9646	-3.2604	-65.474	76.223	128.569	214.177	116.003	169.944	112.053	183.531	190.463	79.526	180.355	-104.325	187.795	28.869	154.295	-48.774	0.00041701	0.0003327	0.00013082	1175.7	4.6574e-06	5.9583e-06	1277.8	245.77	2.5799e-06	1.3033e-06	307.53	85.674	67.318	20.105	4.189e-06	27.449	0.00020162	0.00019823	5.4596e-05	1158.4	2.1431e-06	2.163e-06	1254.8	243.68	2.1435e-06	2.1355e-06	302.38	84.957	67.582	20.22	2.104e-06	27.646	68.475	243.816	4.935	-96.367	-85.922	62.312	-95.824	-88.614	204.567	112.600	-89.256	-82.780	-82.224	-75.181	23.103	-75.268	-8191	255	
612.145	1	1	0	0	0.07088	0.16754	0.15194	0.30241	0.12456	0.11299	0.1223	0.35691	0.18833	0.3117	0.20347	0.19325	0.27115	0.12046	0.30443	0.26884	-2.95	-2.7417	-3.0708	-3.3979	-2.9062	-3.3458	-3.1854	-2.9646	-3.2833	-2.8979	-3.4708	-3.2875	-3.0354	-3.4083	-2.9729	-3.0563	34.896	228.453	35.008	244.560	24.710	-72.705	4.989	224.267	-65.047	233.467	232.072	-53.653	219.073	-87.235	135.541	-31.131	0.00046421	0.00028245	9.935e-05	1179.5	4.9573e-06	7.022e-06	1274.2	245.32	1.4184e-06	4.1111e-06	308.94	85.817	67.795	20.102	3.4049e-06	27.436	0.00019448	0.00019373	5.297e-05	1159.8	2.1122e-06	2.0353e-06	1252.3	243.16	2.0819e-06	2.0733e-06	302.89	84.812	67.636	20.283	2.069e-06	27.661	63.889	-25.684	78.034	-96.239	81.849	54.249	-96.115	-88.788	243.678	65.745	-88.829	-82.399	-81.850	-75.027	70.662	-75.493	-8191	255	
612.241	1	1	0	0	0.062065	0.031908	0.1969	0.073744	0.16139	0.22583	0.32671	0.13902	0.21806	0.05539	0.12326	0.11826	0.3058	0.031909	0.07034	0.036174	-3.0833	-2.8542	-3.2	-3.3292	-2.8937	-3.2917	-3.2396	-3.2083	-3.2417	-2.8854	-3.2625	-3.45	-2.9146	-3.3604	-3.1354	-2.9521	134.176	-95.035	16.871	182.717	199.978	50.193	159.664	109.899	85.614	-17.064	141.672	191.354	180.430	146.913	240.391	183.432	0.00025891	0.00019677	0.00013993	1175.7	5.4158e-06	2.9654e-06	1270.1	244.37	5.7778e-06	3.0947e-06	306.4	85.567	67.197	19.876	2.1096e-06	27.131	0.00019063	0.00018629	5.2433e-05	1157.4	2.0919e-06	2.0864e-06	1252.3	243.05	2.0708e-06	2.0534e-06	302.37	84.798	67.497	20.241	2.0936e-06	27.56	50.813	-27.073	-2.441	-96.002	-9.937	104.292	-96.286	-89.042	-81.571	-11.320	-88.828	-82.892	-81.808	-75.104	30.695	-75.521	-8191	255	
612.335	1	1	0	0	0.16364	0.17389	0.17391	0.34937	0.13141	0.072037	0.16104	0.10895	0.2514	0.13609	0.11554	0.13819	0.16764	0.12663	0.21284	0.21463	-2.975	-3.025	-3.2292	-3.4188	-2.875	-3.2708	-3.2729	-3.0729	-3.2208	-3.0333	-3.0146	-3.3833	-3	-3.1562	-3.1708	-3.0292	26.839	70.463	22.372	118.600	-82.701	11.955	191.263	230.870	51.392	195.461	13.899	196.577	-61.510	190.216	53.443	-17.486	0.00038947	0.00025381	5.4423e-05	1175.5	1.4082e-06	4.5791e-06	1265.8	244.88	5.3452e-06	3.1129e-06	305.25	85.353	67.607	20.094	3.0586e-06	27.08	0.00019379	0.00019308	5.3028e-05	1157.5	2.1394e-06	2.1119e-06	1250	243.27	2.1454e-06	2.1054e-06	301.94	84.852	67.55	20.236	2.0768e-06	27.529	32.069	-34.156	39.658	-95.991	143.612	80.472	-96.139	-88.934	116.729	173.014	-89.109	-82.420	-82.036	-75.230	24.395	-75.550	-8191	255	
612.433	1	1	0	0	0.10889	0.10277	0.091104	0.048353	0.15294	0.10178	0.27926	0.33583	0.22154	0.29602	0.16498	0.22467	0.11871	0.41205	0.14368	0.16293	-3.0125	-2.9604	-2.8458	-3.5604	-2.7938	-3.1771	-3.3229	-3.0146	-3.3604	-2.9958	-3.1646	-3.4188	-2.8	-3.1979	-3.3896	-2.8208	69.789	-62.509	-68.521	219.355	-32.043	143.761	118.089	217.434	134.534	-57.240	22.435	146.623	-48.726	-72.442	-85.441	219.948	0.00024193	0.00026661	3.8966e-05	1182.2	1.6659e-06	3.5081e-06	1274.3	243.63	5.8324e-06	3.6031e-06	305.89	85.74	67.456	19.998	2.1297e-06	27.541	0.00019481	0.00018936	5.2704e-05	1158.9	2.093e-06	2.0681e-06	1253.6	242.65	2.0732e-06	2.03e-06	301.76	84.744	67.503	20.17	2.0542e-06	27.608	29.891	245.367	-12.320	-96.021	-1.434	111.267	-96.370	-88.676	41.026	-33.468	-88.629	-82.848	-82.019	-75.661	101.622	-75.749	-8191	255	
612.552	1	1	0	0	0.10126	0.16281	0.13934	0.27799	0.043455	0.011967	0.4764	0.17586	0.21887	0.16779	0.24519	0.018729	0.20425	0.23069	0.12296	0.095517	-3.0229	-2.9688	-2.9021	-3.4146	-2.9792	-3.1417	-3.4479	-3.0167	-3.3146	-3.1229	-3.1417	-3.5083	-2.9271	-3.0646	-3.325	-2.975	118.551	87.965	211.789	237.362	-103.647	105.085	209.664	237.714	216.279	76.339	148.707	231.144	220.315	231.672	201.078	24.019	0.00051085	0.00030386	0.00013715	1174.3	5.8201e-07	4.5096e-06	1273.8	244.68	7.4447e-06	1.4721e-06	308.28	84.925	66.743	19.949	2.7678e-06	27.29	0.00018871	0.00018797	5.1826e-05	1156.3	2.0722e-06	2.0353e-06	1250.7	242.91	2.0702e-06	2.0808e-06	302.86	84.62	67.214	20.171	2.0956e-06	27.576	50.366	248.918	-8.886	-96.300	37.168	88.566	-96.118	-88.762	-78.213	-74.344	-89.249	-82.474	-81.841	-75.005	88.171	-75.491	-8191	255	
612.648	1	1	0	0	0.50625	0.18723	0.21309	0.12926	0.22816	0.15301	0.046217	0.17794	0.16154	0.11438	0.21165	0.1427	0.27547	0.21008	0.1375	0.19615	-2.8104	-3.1354	-3.0333	-3.7	-2.9979	-3.0458	-3.4583	-3.1229	-3.2562	-3.1583	-3.1167	-3.5229	-2.9458	-2.9313	-3.2021	-3.0292	164.055	102.901	212.173	238.535	-82.458	69.188	177.587	-79.303	-47.445	113.651	249.846	170.341	-79.397	-61.442	251.164	-98.887	0.00034579	0.00023526	5.442e-05	1178.3	4.9654e-06	7.5888e-06	1271.9	244.28	1.9994e-06	4.701e-07	306.83	84.959	67.157	19.862	2.4595e-06	27.115	0.00019591	0.00019169	5.3313e-05	1156.2	2.1006e-06	2.1128e-06	1250.7	242.77	2.0689e-06	2.0772e-06	301.48	84.544	67.284	20.206	2.0384e-06	27.525	59.727	11.211	-54.118	-96.217	-48.181	91.208	-96.012	-88.941	-37.106	-64.229	-88.876	-82.486	-81.839	-74.803	-10.336	-75.433	-8191	255	
612.744	1	1	0	0	0.11036	0.10018	0.21402	0.2524	0.11787	0.35675	0.23212	0.12254	0.083745	0.063981	0.058352	0.11933	0.18501	0.12243	0.065952	0.023074	-2.825	-3.35	-2.9313	-3.6312	-2.9833	-3.0521	-3.6104	-2.9188	-3.1208	-3.3083	-3.05	-3.2854	-3.0208	-3.0312	-3.5354	-2.8833	77.434	-14.831	204.867	200.866	-29.313	-29.882	168.434	-46.191	58.228	161.474	-69.480	185.503	-47.668	156.105	191.133	-89.720	0.0005163	0.00014907	0.00014426	1181.6	2.4637e-06	6.4075e-06	1266.3	242.98	5.038e-06	2.6811e-06	307.47	85.129	67.319	19.912	1.1838e-06	27.329	0.0001911	0.0001871	5.1695e-05	1156.8	2.0802e-06	2.0309e-06	1248.9	242.41	2.0685e-06	2.0732e-06	301.99	84.649	67.396	20.157	2.0759e-06	27.645	17.769	241.933	-24.150	-96.154	-35.302	79.642	-96.024	-89.206	-32.972	48.513	-89.034	-82.439	-81.916	-74.944	21.704	-75.412	-8191	255	
612.841	1	1	0	0	0.2549	0.048915	0.16459	0.29712	0.057215	0.23547	0.19269	0.18639	0.035052	0.13213	0.13898	0.18859	0.1325	0.11067	0.083194	0.31093	-2.7667	-3.2333	-2.7313	-3.35	-3.4229	-2.9833	-3.475	-3.0208	-3.0812	-3.3021	-2.9604	-3.2208	-3.1875	-3.0708	-3.4917	-3.0042	85.949	186.633	-16.958	146.997	-57.651	-76.575	224.491	220.307	173.200	-80.476	43.203	237.254	164.531	59.402	235.188	213.587	0.00054019	0.00077395	5.4203e-05	1173.5	1.0852e-06	5.5777e-07	1273.8	243.83	1.9039e-06	1.5432e-06	306.56	84.975	67.251	19.951	2.2867e-06	27.106	0.00019406	0.00019012	5.283e-05	1156.3	2.097e-06	2.0652e-06	1251.6	242.65	2.0981e-06	2.0549e-06	301.79	84.49	67.274	20.163	2.0273e-06	27.47	48.482	-79.839	138.825	-96.199	174.265	15.689	-95.976	-88.719	-43.340	53.658	-89.021	-82.497	-82.211	-75.026	50.641	-75.658	-8191	255	
612.937	1	1	0	0	0.070298	0.051223	0.096131	0.051061	0.17031	0.17209	0.10567	0.23325	0.21117	0.17787	0.20375	0.15829	0.18761	0.16627	0.11254	0.17616	-2.8063	-3.2896	-2.9708	-3.4646	-3.3187	-3.0771	-3.5938	-3.0396	-2.8479	-3.3937	-3.1042	-3.2938	-3.2354	-2.8563	-3.3917	-3.05	175.494	127.856	209.039	172.014	175.227	74.817	125.399	21.409	-21.706	-70.009	-18.977	-91.630	-58.770	-90.572	226.814	-102.525	0.0002927	0.00019136	9.4313e-05	1171.4	2.2382e-06	6.9677e-06	1274.6	245.63	3.2437e-06	6e-06	306.58	84.868	67.14	19.915	2.4055e-06	27.179	0.00019045	0.00018731	5.1306e-05	1154.8	2.0089e-06	1.9907e-06	1251.5	242.81	2.0161e-06	2.0114e-06	301.12	84.501	67.266	20.168	1.9991e-06	27.554	22.865	-106.523	41.789	-96.025	-68.542	87.795	-96.231	-88.667	-75.103	75.307	-88.695	-82.197	-81.916	-75.060	41.853	-75.400	-8191	255	
613.033	1	1	0	0	0.1549	0.1661	0.32244	0.20891	0.1031	0.11454	0.27707	0.25322	0.10175	0.14107	0.18923	0.075226	0.21963	0.22942	0.17095	0.021062	-2.5729	-3.1771	-2.8438	-3.3333	-3.1792	-2.8812	-3.5521	-3.2292	-3.0812	-3.3521	-3.0604	-3.1729	-3.1896	-2.9979	-3.1708	-3.2146	169.730	7.949	59.219	233.402	10.833	217.554	223.266	203.607	171.051	-73.678	225.348	250.126	-95.902	199.692	-15.669	78.870	0.00046376	0.0002439	5.0392e-05	1174.5	4.5818e-06	3.095e-06	1269.1	244.77	2.2195e-06	7.3065e-07	308.08	85.056	67.02	19.915	2.8956e-06	27.417	0.00018654	0.00018457	5.095e-05	1156	2.0311e-06	2.0125e-06	1251.4	242.36	2.0499e-06	2.0218e-06	301.78	84.557	67.135	20.134	2.0327e-06	27.518	42.527	-27.149	-54.707	-96.296	232.612	77.357	-96.008	-88.695	-61.730	200.301	-88.923	-82.016	-82.160	-75.169	25.392	-75.249	-8191	255	
613.129	1	1	0	0	0.22084	0.15919	0.25835	0.23208	0.021743	0.26018	0.17918	0.25628	0.12531	0.11514	0.33061	0.056788	0.14954	0.3471	0.06047	0.05346	-2.625	-3.2833	-2.8625	-3.0146	-3.3146	-2.7729	-3.2812	-3.0812	-2.9729	-3.3292	-3.1979	-3.0646	-3.225	-2.9458	-3.2792	-3.2208	94.808	37.433	-75.294	198.303	141.990	-25.340	170.631	221.526	-77.221	235.337	-65.835	212.546	229.674	-57.591	111.586	118.213	0.00044345	0.00045247	0.00011451	1173.4	2.4024e-06	1.8501e-06	1275.5	244.04	4.44e-06	3.5509e-06	306.85	85.115	67.149	20.046	2.2879e-06	27.152	0.00019014	0.00018595	5.2016e-05	1156	2.0719e-06	2.0533e-06	1250.6	241.98	2.0752e-06	2.0373e-06	301.22	84.453	67.299	20.23	2.0441e-06	27.525	43.444	-23.678	-38.783	-96.117	-29.348	141.777	-96.195	-89.076	28.831	-14.198	-88.894	-82.605	-82.045	-74.993	142.538	-75.573	-8191	255	
613.248	1	1	0	0	0.13279	0.12992	0.20269	0.34521	0.053081	0.1692	0.12742	0.30603	0.18785	0.061318	0.24264	0.1969	0.094608	0.15715	0.14137	0.23566	-2.4188	-3.3729	-3.0417	-3.15	-3.4104	-2.9583	-3.4479	-3.2021	-2.8312	-3.3187	-3.0521	-3.0917	-3.3875	-2.9667	-3.2833	-3.2396	243.370	-79.757	-31.397	249.417	127.678	-52.413	209.230	206.474	242.405	67.389	209.829	-93.259	-16.806	-100.599	156.008	223.300	0.00031721	0.00049922	5.231e-05	1175	4.1086e-06	1.6565e-06	1269.6	243.66	6.0301e-06	1.8225e-06	307.08	84.951	67.205	19.884	1.5099e-06	27.286	0.00019013	0.00018535	5.1669e-05	1155.2	2.0349e-06	1.988e-06	1250.2	242.65	2.0546e-06	2.0332e-06	301.64	84.556	67.298	20.193	2.0684e-06	27.573	51.419	-48.799	-9.432	-96.062	221.433	168.303	-96.165	-88.826	-89.546	170.905	-88.897	-82.634	-81.967	-74.966	-39.969	-75.621	-8191	255	
613.344	1	1	0	0	0.21796	0.11615	0.11049	0.4811	0.46774	0.15612	0.13105	0.2056	0.14721	0.025105	0.24008	0.22278	0.081805	0.097388	0.028348	0.22104	-2.3125	-3.3708	-2.9208	-3.1667	-3.3167	-2.7729	-3.5542	-3.3417	-2.8063	-3.3438	-3.2438	-2.825	-3.5708	-3.0125	-3.2042	-3.2396	95.621	-34.998	65.175	226.111	28.119	139.703	210.117	-87.204	125.942	42.316	-98.079	167.065	81.599	-17.843	22.670	189.087	0.00044012	0.00038761	0.00010136	1175.6	3.4266e-06	5.0487e-06	1271.3	245.18	5.1988e-06	2.4982e-06	306.62	84.636	67.235	19.983	1.1088e-06	27.326	0.00019373	0.0001889	5.2414e-05	1157.3	2.0891e-06	2.0895e-06	1251.1	243.02	2.1048e-06	2.0669e-06	302	84.332	67.267	20.167	2.0734e-06	27.582	52.139	-44.817	-42.627	-96.175	-63.528	68.057	-95.966	-88.738	-80.825	25.479	-89.176	-82.585	-81.847	-75.026	141.734	-75.126	-8191	255	
613.440	1	1	0	0	0.09085	0.12669	0.051531	0.23714	0.1561	0.11852	0.18242	0.20526	0.084764	0.043227	0.15843	0.19829	0.034575	0.037101	0.12751	0.11511	-2.4938	-3.225	-2.9625	-3.2896	-3.4	-2.9813	-3.2021	-3.4021	-2.9146	-3.3042	-3.0292	-3.075	-3.4917	-3.0396	-3.0167	-3.4083	111.540	252.965	247.424	212.727	-98.856	199.630	194.866	238.812	103.097	27.501	-65.207	-62.261	190.313	190.348	119.553	97.434	0.00026673	0.00034235	7.9365e-05	1178.9	4.6828e-06	3.0994e-06	1269.4	243.87	3.0215e-06	3.0822e-06	308.06	85.167	67.356	19.971	3.8067e-06	27.277	0.00019212	0.00018733	5.1365e-05	1156.6	2.0371e-06	2.0655e-06	1251.2	242.38	2.0633e-06	2.052e-06	301.82	84.71	67.357	20.195	2.0636e-06	27.527	85.836	-73.317	48.907	-96.058	-79.503	110.963	-96.058	-88.860	3.212	35.674	-88.919	-82.517	-81.597	-75.019	78.700	-75.439	-8191	255	
613.514	1	1	0	0	0.21078	0.122	0.14792	0.39037	0.22425	0.20021	0.38112	0.15612	0.089426	0.13663	0.17747	0.10717	0.27599	0.10191	0.1006	0.11835	-2.5458	-3.2292	-3.3417	-3.1146	-3.5875	-3.1479	-3.2083	-3.5292	-2.9417	-3.3396	-3.2562	-3.0396	-3.3312	-3.1542	-3.0062	-3.4167	-47.151	-68.061	232.163	196.649	8.757	-75.739	151.736	146.826	237.129	80.987	37.932	159.818	210.512	-30.933	-30.473	92.227	0.00050536	0.00043954	0.00011724	1175	3.3972e-06	7.2501e-06	1276	243.89	5.2162e-06	4.2331e-06	306.81	85.574	67.453	20.039	2.0044e-06	27.284	0.00019084	0.00018739	5.2127e-05	1155.5	2.0508e-06	2.0733e-06	1251.3	242.51	2.0767e-06	2.071e-06	301.52	84.952	67.619	20.239	2.0515e-06	27.633	34.682	-61.478	71.042	-96.132	-73.327	27.035	-96.104	-88.739	147.453	18.677	-88.863	-82.256	-82.090	-74.930	57.097	-75.465	-8191	255	
613.633	1	1	0	0	0.20897	0.21954	0.10218	0.26211	0.059423	0.23446	0.14942	0.25197	0.16383	0.098859	0.23311	0.34637	0.18092	0.13719	0.055134	0.10789	-2.7042	-3.075	-3.3042	-3.1354	-3.4042	-3.0458	-3.2729	-3.5833	-3.1104	-3.1396	-3.3021	-2.8771	-3.3896	-3.3	-2.8563	-3.4583	131.965	-2.660	63.826	215.177	-13.653	230.311	171.001	-84.736	-23.290	176.576	144.694	-75.829	-81.148	219.837	216.598	166.305	0.00022479	0.00044814	0.00010621	1171.6	4.9309e-06	3.4574e-06	1271.8	243.98	8.455e-06	6.8882e-06	307.34	85.258	67.684	19.941	3.8244e-06	27.371	0.00019083	0.00018776	5.2051e-05	1154.8	2.0602e-06	2.034e-06	1251.3	242.44	2.0476e-06	2.0518e-06	301.71	84.585	67.619	20.252	2.0426e-06	27.63	33.701	-43.958	-60.869	-96.028	-37.564	149.501	-96.325	-88.779	252.839	22.561	-88.991	-82.777	-81.747	-74.795	-17.345	-75.337	-8191	255	
613.729	1	1	0	0	0.087623	0.066136	0.23204	0.19969	0.11834	0.20323	0.25886	0.32736	0.11636	0.15667	0.2322	0.23985	0.16681	0.20348	0.063523	0.12677	-2.6292	-3.0104	-3.2875	-2.875	-3.2521	-3.4229	-2.9938	-3.4854	-2.9229	-3.0146	-3.4583	-2.9792	-3.3333	-3.2333	-3.1292	-3.4354	112.885	78.322	-68.493	-49.858	-96.430	1.612	216.164	128.804	-70.678	241.970	-76.667	-51.575	-60.222	-86.330	-11.555	101.067	0.0003003	0.00031349	9.1941e-05	1175.9	4.7322e-06	6.2913e-07	1277.2	243.46	4.6947e-06	3.3363e-06	306.69	85.054	67.168	20.034	4.1121e-07	27.507	0.00019053	0.00018576	5.1648e-05	1158.3	2.0715e-06	2.0375e-06	1254.4	242.32	2.0319e-06	2.0434e-06	301.94	84.688	67.405	20.259	2.0318e-06	27.705	52.629	-9.600	-43.921	-95.944	-43.703	63.705	-96.126	-88.948	-7.983	-49.718	-88.923	-82.651	-81.981	-74.698	114.872	-75.624	-8191	255	
613.825	1	1	0	0	0.096456	0.14333	0.11347	0.22165	0.16435	0.21414	0.071829	0.26024	0.023009	0.0053303	0.26656	0.1525	0.19558	0.085951	0.044837	0.16603	-2.6458	-3.0833	-3.3854	-3.0687	-3.2438	-3.3771	-2.9333	-3.3979	-3.1771	-3.0375	-3.55	-3.0375	-3.3063	-3.2854	-3.0021	-3.3063	226.509	113.640	187.896	201.542	63.445	95.206	130.579	184.366	215.937	127.826	161.337	80.266	-103.524	127.727	-17.365	165.309	0.00039201	0.00057047	8.517e-05	1176.8	2.7698e-06	6.2395e-06	1273.7	245.2	5.5671e-06	4.6777e-06	309.18	85.902	67.606	20.121	3.6832e-06	27.403	0.00018754	0.00018441	5.1925e-05	1157.4	2.0659e-06	2.0396e-06	1253.5	243.64	2.0323e-06	2.0331e-06	302.27	85.039	67.58	20.304	2.0264e-06	27.703	20.522	250.064	-28.285	-96.019	128.363	99.231	-96.190	-88.681	-29.421	-12.227	-88.522	-82.282	-82.138	-75.343	40.677	-75.689	-8191	255	
613.945	1	1	0	0	0.099507	0.07745	0.1638	0.058103	0.14495	0.078067	0.11309	0.17795	0.060966	0.10199	0.23805	0.18027	0.25725	0.22396	0.19851	0.14558	-2.9354	-2.9729	-3.3271	-3.2104	-3.0333	-3.3542	-2.9875	-3.4562	-2.9292	-2.9938	-3.5958	-2.9646	-3.1708	-3.2313	-2.9458	-3.3375	-13.288	183.390	-97.617	-88.137	-62.031	96.524	210.195	192.746	229.319	31.487	239.843	221.579	216.723	-73.729	-16.122	-60.052	0.00036483	0.00019076	9.7937e-06	1176.8	2.2136e-06	3.1242e-06	1277.4	246.06	2.9147e-06	2.5609e-06	307.66	85.625	67.743	20.037	1.2866e-06	27.477	0.00018863	0.00018419	5.0941e-05	1158.7	2.0621e-06	2.0261e-06	1254.4	243.57	2.0197e-06	2.0231e-06	302.13	84.773	67.668	20.314	2.0491e-06	27.659	39.896	-73.560	-103.075	-96.142	97.099	132.197	-96.267	-89.032	-36.204	250.914	-88.812	-82.654	-81.946	-75.258	170.737	-75.639	-8191	255	
614.042	1	1	0	0	0.022762	0.30468	0.16994	0.12353	0.17057	0.1392	0.25108	0.12511	0.014182	0.25025	0.24304	0.16305	0.0767	0.24213	0.20404	0.20345	-2.8229	-2.6937	-3.4271	-3.1604	-3.0375	-3.4146	-3.1375	-3.4354	-3.2396	-2.8771	-3.3875	-3.0375	-3.0208	-3.4083	-2.8854	-3.15	114.111	9.539	202.679	177.737	30.247	176.397	207.217	250.423	-42.040	155.929	235.438	-95.368	26.150	183.819	251.273	222.892	0.00041586	0.00035678	8.522e-05	1179.8	5.3469e-06	2.6979e-06	1275.8	244.9	5.7813e-07	3.8049e-06	308.95	86.022	67.61	20.003	5.9491e-07	27.427	0.00019082	0.00018527	5.1588e-05	1160.2	2.0572e-06	2.0154e-06	1254.7	243.35	2.0503e-06	2.0102e-06	302.67	85.03	67.754	20.33	1.9952e-06	27.745	6.907	-0.439	44.498	-96.211	52.570	68.999	-95.927	-88.730	4.398	-2.476	-88.919	-82.917	-81.908	-75.033	35.701	-75.334	-8191	255	
614.113	1	1	0	0	0.16026	0.099212	0.13301	0.20734	0.33449	0.081135	0.10337	0.20911	0.1069	0.20438	0.11724	0.032917	0.31439	0.26283	0.038028	0.11206	-2.8521	-2.7646	-3.0687	-3.2104	-2.8896	-3.3229	-2.9833	-3.2729	-3.2479	-2.9208	-3.4813	-3.0458	-2.9875	-3.3688	-2.9146	-3.0896	161.502	183.109	150.069	191.514	150.096	-6.390	232.019	237.790	57.346	185.067	188.598	116.737	-87.531	246.649	182.143	132.059	0.0004996	0.00030292	8.606e-05	1180.6	4.6096e-06	5.2635e-06	1275.7	245.94	6.5085e-06	3.1717e-06	307.49	85.751	67.652	20.054	1.2465e-06	27.607	0.00018539	0.00018292	5.1541e-05	1160.9	2.0385e-06	1.997e-06	1253.4	244.25	2.0243e-06	2.0179e-06	302.72	85.21	67.849	20.296	1.995e-06	27.694	57.191	-81.360	-52.228	-95.825	53.865	23.537	-96.266	-88.820	-45.525	53.622	-88.739	-82.453	-81.956	-74.868	50.725	-75.613	-8191	255	
614.234	1	1	0	0	0.24981	0.096277	0.2571	0.12423	0.15621	0.086282	0.38876	0.033835	0.090457	0.22284	0.17074	0.12848	0.29633	0.031277	0.20968	0.17119	-2.7917	-2.8083	-3.2417	-3.2917	-3	-3.45	-3.1583	-3.2812	-3.3958	-2.8771	-3.2875	-3.2417	-3.1771	-3.4313	-3.0292	-3.0875	23.041	65.910	-59.625	-61.246	231.561	-91.402	218.938	115.237	7.950	44.119	232.722	210.524	-41.892	-55.132	35.485	226.156	0.00043809	0.00051058	0.00011711	1181.9	3.7712e-06	2.6922e-06	1275.1	245.32	1.2077e-06	4.299e-06	307.9	85.643	67.676	19.95	1.6627e-06	27.349	0.00018864	0.00018643	5.2155e-05	1159.7	2.0329e-06	2.0506e-06	1254.9	243.78	2.0607e-06	2.0169e-06	302.88	84.979	67.845	20.335	2.029e-06	27.732	41.360	-49.928	-71.294	-96.172	24.642	-2.496	-96.236	-88.846	-3.668	-11.551	-88.743	-82.651	-82.117	-75.374	121.226	-75.503	-8191	255	
614.328	1	1	0	0	0.16399	0.084974	0.103	0.14159	0.17279	0.047382	0.3215	0.057855	0.089222	0.14721	0.15826	0.18747	0.19141	0.22013	0.059022	0.2698	-2.8771	-2.8646	-3.2687	-3.3917	-2.9062	-3.2896	-3.2646	-3.15	-3.3979	-3.0542	-3.1437	-3.1708	-3.0875	-3.3625	-3.0604	-3.1083	106.044	81.156	-63.249	198.684	6.841	-28.672	224.415	108.858	186.981	127.756	133.980	197.916	228.137	192.873	61.184	145.778	0.00045809	0.00028173	3.7547e-05	1178.7	6.5671e-06	1.1768e-06	1276	246.3	5.0376e-06	4.6152e-06	307.89	85.76	67.902	20.078	4.3922e-06	27.466	0.00018785	0.00018556	5.1077e-05	1160.3	2.0101e-06	1.9986e-06	1255.2	244.38	2.0609e-06	1.9944e-06	303.43	85.372	67.793	20.366	2.0811e-06	27.745	64.626	-36.671	-35.639	-95.873	-79.311	-17.022	-96.079	-88.842	-100.905	188.890	-89.137	-82.615	-82.377	-75.106	-18.729	-75.393	-8191	255	
614.424	1	1	0	0	0.18458	0.11907	0.090765	0.26754	0.13173	0.19805	0.07566	0.13416	0.21243	0.28421	0.14219	0.23661	0.17722	0.15555	0.15864	0.36402	-3.0271	-2.8792	-3.1375	-3.2521	-2.9458	-3.4208	-3.1958	-2.9875	-3.3708	-3.0229	-3.1333	-3.4188	-3.0708	-3.2917	-3.2125	-3.0667	66.586	249.130	247.000	216.376	142.754	136.633	75.042	236.760	-18.331	105.637	-97.617	221.376	246.686	138.495	-93.907	95.618	0.0006217	0.00017579	6.564e-05	1185	4.8079e-06	5.5418e-06	1272	246.58	3.1544e-06	1.028e-06	309.23	85.336	68.157	20.207	3.5598e-06	27.437	0.0001918	0.00018711	5.1774e-05	1162.6	2.0726e-06	2.0742e-06	1255.9	244.22	2.0278e-06	2.0404e-06	303	85.142	67.97	20.465	2.0424e-06	27.811	66.833	-87.167	-24.091	-96.098	-12.664	75.161	-96.047	-88.671	-88.880	68.479	-88.900	-82.352	-82.124	-75.081	-46.931	-75.408	-8191	255	
614.545	1	1	0	0	0.14654	0.062349	0.11533	0.15964	0.21179	0.17143	0.2009	0.18943	0.21931	0.43786	0.23159	0.14875	0.34092	0.047646	0.21462	0.068433	-2.9979	-2.8583	-2.9771	-3.5438	-2.9688	-3.3104	-3.2667	-2.9104	-3.3833	-3.0521	-3.275	-3.2292	-3.1167	-3.2417	-3.1604	-2.9417	105.958	122.738	109.978	203.245	126.999	-67.204	119.597	223.525	175.145	87.024	125.776	224.817	248.451	97.686	-80.869	-40.127	0.0003214	0.00066842	0.00012731	1183.4	1.5535e-06	4.2144e-06	1279.7	244.95	2.6406e-06	2.0488e-06	308.65	85.501	67.672	20.089	3.5395e-06	27.428	0.00018938	0.00018686	5.1919e-05	1162.7	2.0577e-06	2.0588e-06	1256.5	244.17	2.0884e-06	2.0498e-06	303.3	85.252	67.945	20.384	2.0712e-06	27.79	30.771	-45.088	-77.784	-95.934	202.289	80.130	-96.313	-89.181	142.824	-21.530	-88.982	-82.524	-82.174	-75.537	-13.513	-75.537	-8191	255	
614.641	1	1	0	0	0.19687	0.17144	0.071478	0.13932	0.076334	0.068011	0.20097	0.070946	0.30359	0.12352	0.25775	0.048296	0.056416	0.12327	0.16341	0.26414	-3.1667	-2.9979	-2.9042	-3.6688	-2.9479	-3.3375	-3.4229	-3.1229	-3.3833	-3.1292	-3.3937	-3.475	-2.9396	-3.0771	-3.3292	-2.8688	223.316	82.061	188.100	190.186	-70.927	220.179	146.489	228.883	-53.015	-91.539	238.394	-50.348	-64.163	46.245	-42.763	230.171	0.00043927	0.00036153	3.2314e-05	1180.1	3.6387e-06	3.3019e-06	1273.2	245.23	3.2844e-06	2.1035e-06	308.54	85.983	67.849	20.151	1.8101e-06	27.589	0.00019115	0.00018955	5.2736e-05	1162.3	2.0998e-06	2.0626e-06	1254.6	244.1	2.0718e-06	2.0742e-06	303.09	85.349	67.856	20.409	2.0856e-06	27.809	61.904	-65.223	23.827	-96.136	-24.778	72.386	-96.194	-88.897	-12.472	49.433	-88.624	-82.572	-82.197	-75.122	34.995	-75.736	-8191	255	
614.737	1	1	0	0	0.092903	0.21256	0.30341	0.13247	0.11686	0.22054	0.19592	0.089123	0.19168	0.14703	0.11128	0.18925	0.15215	0.19896	0.25085	0.2499	-2.8458	-3.1208	-2.8458	-3.5438	-3.0854	-3.1771	-3.2917	-3.0271	-3.2833	-3.2125	-3.2146	-3.5062	-3.0625	-3.1937	-3.3167	-3.0792	202.035	69.161	57.666	215.717	-18.365	28.565	57.518	215.493	148.923	212.292	204.612	151.478	-16.885	-95.171	-8.688	-20.384	0.00032572	0.00039129	0.00013221	1176.4	2.6819e-06	5.8567e-06	1277.2	245.84	4.4266e-06	3.3385e-06	308.8	86.138	67.65	20.193	3.138e-06	27.39	0.00019102	0.00018643	5.2503e-05	1159.3	2.0748e-06	2.0556e-06	1256.2	244.62	2.0558e-06	2.0731e-06	303.67	85.336	67.883	20.421	2.0523e-06	27.806	64.011	-51.959	-17.765	-96.143	133.634	64.800	-96.159	-88.553	63.234	192.275	-88.852	-82.515	-82.062	-74.898	78.687	-75.699	-8191	255	
614.809	1	1	0	0	0.14608	0.13356	0.32071	0.065401	0.1766	0.050312	0.14957	0.27799	0.042517	0.15206	0.12336	0.067651	0.13708	0.29792	0.30726	0.24176	-2.9333	-3.2042	-2.9542	-3.5104	-3.2208	-2.9375	-3.4125	-3.1083	-3.2208	-3.3146	-3.1604	-3.4875	-3.1229	-3.1396	-3.3708	-3.0687	35.946	51.864	-18.930	71.808	-13.758	-84.008	-49.781	-94.108	5.113	70.479	-94.492	-97.895	183.975	186.482	161.778	157.559	0.00025372	0.00020788	0.00014419	1180.2	5.012e-06	8.4422e-07	1275.7	246.48	3.429e-06	2.6501e-06	308.71	85.445	67.56	20.197	3.0152e-06	27.537	0.00018927	0.00018578	5.1984e-05	1161.8	2.0545e-06	2.048e-06	1254.6	244.44	2.1012e-06	2.0438e-06	303.14	85.143	67.777	20.447	2.0671e-06	27.831	33.840	32.877	33.379	-95.955	-79.152	-15.506	-96.326	-88.849	82.836	139.210	-88.635	-82.534	-82.352	-75.063	45.599	-75.889	-8191	255	
614.930	1	1	0	0	0.067705	0.11941	0.15495	0.27375	0.11165	0.24069	0.10214	0.22121	0.10364	0.19269	0.55201	0.15609	0.11508	0.082469	0.2724	0.27889	-2.7438	-3.3312	-2.8625	-3.5667	-3.1604	-2.9583	-3.5854	-3.0187	-3.3542	-3.3	-2.8396	-3.3896	-3.0875	-3.1937	-3.2854	-3.1188	30.033	-74.653	71.485	-83.927	157.897	37.601	229.913	-92.143	48.428	227.928	206.045	162.744	-58.613	44.037	175.296	247.572	0.00051216	0.00036604	0.0001122	1178.8	4.6282e-06	7.4714e-06	1277.7	245.88	3.3537e-06	2.3892e-06	308.33	85.502	67.862	20.154	2.2902e-06	27.452	0.00019453	0.0001923	5.2636e-05	1162.1	2.1067e-06	2.0587e-06	1257.6	244.53	2.0999e-06	2.0963e-06	303.52	85.177	67.88	20.425	2.0938e-06	27.792	29.000	-3.091	-47.814	-96.101	232.416	89.319	-96.132	-88.668	1.271	226.137	-88.853	-82.357	-81.937	-74.884	-19.203	-75.676	-8191	255	
615.026	1	1	0	0	0.30022	0.20525	0.12008	0.052587	0.22118	0.046789	0.29971	0.12301	0.10713	0.27417	0.15781	0.36766	0.15512	0.4355	0.12077	0.11878	-2.7562	-3.2396	-2.8875	-3.175	-3.2938	-2.9458	-3.5458	-3.1021	-3.1021	-3.1458	-3.0083	-3.3021	-3.2938	-2.8583	-3.3354	-3.0167	17.715	232.515	73.755	149.697	-32.509	118.393	162.015	116.432	-89.817	195.539	176.386	217.212	-92.226	-74.662	227.698	196.550	0.00061059	0.00029896	3.1984e-05	1179	2.7486e-06	7.527e-07	1279	244.72	9.5688e-07	1.7689e-06	307.85	86.023	67.891	20.279	8.3749e-07	27.453	0.000195	0.00019389	5.3198e-05	1161.3	2.0941e-06	2.0947e-06	1256.2	244.51	2.1491e-06	2.0796e-06	303.41	85.245	67.954	20.455	2.1082e-06	27.828	38.550	-42.486	-8.852	-95.963	8.288	166.131	-96.375	-89.048	112.870	37.311	-88.967	-82.590	-81.913	-75.099	33.516	-75.781	-8191	255	
615.122	1	1	0	0	0.19888	0.18022	0.12529	0.19154	0.12281	0.14622	0.060814	0.16227	0.091148	0.13075	0.25117	0.20811	0.19665	0.16631	0.12131	0.21066	-2.7125	-3.2042	-2.8271	-3.3417	-3.2958	-2.9375	-3.5479	-2.9729	-3.0146	-3.4542	-2.8271	-3.0979	-3.2562	-2.8708	-3.3958	-3.1562	155.257	156.581	73.295	-74.055	-88.472	84.725	-106.332	181.685	-19.830	204.247	133.766	111.432	235.204	172.547	123.808	-92.752	0.00025236	0.00039076	2.9642e-05	1175	2.9794e-06	2.7723e-06	1275.6	246.33	3.8169e-06	4.2145e-06	306.6	85.982	67.886	20.286	2.0208e-06	27.598	0.00019403	0.00018847	5.3243e-05	1160.8	2.1217e-06	2.1049e-06	1256	244.69	2.1044e-06	2.1021e-06	303.14	85.381	68.077	20.454	2.0793e-06	27.872	48.298	-26.155	61.281	-95.901	19.545	0.310	-96.051	-88.918	-53.436	45.011	-88.688	-82.302	-81.767	-75.397	11.172	-75.518	-8191	255	
615.218	1	1	0	0	0.027352	0.2398	0.23926	0.22414	0.27719	0.14412	0.20962	0.32404	0.23765	0.26008	0.41043	0.17407	0.35427	0.13957	0.20149	0.10081	-2.4896	-3.3125	-2.8542	-3.2229	-3.2792	-2.9479	-3.3563	-3.2438	-2.9771	-3.4437	-2.95	-3.2313	-3.3104	-2.65	-3.3208	-3.2521	-45.287	178.885	-79.875	163.970	102.449	-89.235	227.158	-86.621	167.681	202.465	-102.146	-38.986	181.684	243.724	74.062	-61.610	0.00043596	0.00021656	6.554e-05	1180.9	3.7869e-06	5.8625e-06	1278.3	246.88	1.3751e-06	6.654e-06	307.09	86.043	67.927	20.234	9.634e-07	27.655	0.00019465	0.00019119	5.3107e-05	1163.2	2.0991e-06	2.1147e-06	1257.5	244.58	2.087e-06	2.0772e-06	303.45	85.15	68.13	20.516	2.0675e-06	27.867	39.308	-22.823	221.470	-96.059	-94.362	68.004	-96.044	-88.957	241.259	96.056	-89.251	-82.513	-82.231	-75.153	157.365	-75.786	-8191	255	
615.314	1	1	0	0	0.070397	0.056873	0.016026	0.16842	0.19031	0.24954	0.15944	0.094986	0.32957	0.13463	0.17903	0.087898	0.1397	0.26286	0.089935	0.21377	-2.5438	-3.2667	-2.9792	-3.2125	-3.1479	-2.825	-3.5792	-3.2333	-2.7333	-3.4938	-3.2729	-3.1417	-3.4604	-2.8667	-3.2854	-3.1375	52.666	137.946	-106.044	-85.402	149.155	251.747	239.540	-80.596	120.930	-64.101	213.704	227.205	-95.084	196.277	-102.190	-93.832	0.00044297	0.00018879	6.9471e-05	1177.8	1.8071e-06	4.7014e-07	1272.4	245.79	3.2293e-06	1.9173e-07	310.2	86.216	67.976	20.132	2.8536e-06	27.381	0.00019431	0.00019296	5.3402e-05	1162.8	2.0837e-06	2.0816e-06	1258.3	244.83	2.0986e-06	2.0977e-06	303.93	85.488	68.108	20.426	2.0903e-06	27.845	34.297	-105.144	123.344	-95.980	83.407	147.476	-95.956	-88.786	78.828	183.387	-89.423	-82.486	-82.292	-75.396	17.858	-75.533	-8191	255	
615.410	1	1	0	0	0.023112	0.12725	0.059959	0.30135	0.13533	0.26972	0.28847	0.067515	0.19966	0.13153	0.17069	0.028388	0.091701	0.19835	0.18821	0.086888	-2.3833	-3.4896	-3.1229	-3.1312	-3.4333	-2.8583	-3.35	-3.3146	-2.825	-3.6188	-3.1125	-3.0604	-3.4875	-3.0833	-3.1792	-3.2354	54.124	-85.470	136.715	221.140	39.204	99.390	185.388	22.992	217.640	-51.813	249.422	26.507	140.003	202.802	250.083	-95.445	0.00047895	0.00048962	0.00010124	1179.5	1.3387e-06	2.7156e-06	1273.2	245.49	3.8599e-06	3.3677e-06	309.82	86.175	67.842	20.268	3.7133e-06	27.236	0.00019294	0.00018783	5.2979e-05	1162.6	2.0805e-06	2.0941e-06	1257.9	244.54	2.0922e-06	2.0782e-06	303.92	85.463	68.188	20.522	2.0561e-06	27.798	33.137	153.743	-87.433	-96.087	-39.841	172.115	-96.160	-88.933	-37.893	71.242	-88.840	-82.597	-81.870	-75.077	94.723	-75.292	-8191	255	
615.507	1	1	0	0	0.059195	0.11824	0.12224	0.13488	0.18838	0.26871	0.19217	0.15604	0.023746	0.28254	0.11233	0.21236	0.2122	0.087048	0.13543	0.22741	-2.5771	-3.2938	-3.1208	-3.2042	-3.3271	-3.0792	-3.3458	-3.3854	-2.925	-3.3021	-3.1479	-2.9062	-3.4021	-2.9708	-3.0521	-3.2687	-0.874	76.060	148.998	-100.593	240.268	30.151	-95.561	203.287	211.553	-78.354	199.283	178.579	-84.954	-94.544	61.955	35.582	0.00036113	0.00037385	6.7933e-05	1179.7	2.8626e-06	5.0834e-06	1277.2	245.84	3.0049e-06	1.5501e-06	306.78	86.004	67.909	20.092	3.3796e-06	27.632	0.00019142	0.00018739	5.2456e-05	1162.1	2.0759e-06	2.0445e-06	1257.5	244.86	2.0823e-06	2.0871e-06	303.31	85.375	67.973	20.416	2.0928e-06	27.866	42.802	-23.174	-45.404	-95.894	234.086	88.071	-96.244	-88.685	8.839	130.750	-88.833	-82.463	-81.773	-75.036	29.765	-75.647	-8191	255	
615.625	1	1	0	0	0.036968	0.1242	0.24333	0.2135	0.21013	0.15842	0.13244	0.10503	0.19334	0.18996	0.1812	0.19322	0.11567	0.32497	0.10067	0.086905	-2.4229	-3.2833	-3.0812	-3.0583	-3.3458	-2.8646	-3.1479	-3.2896	-2.8271	-3.2438	-3.1688	-3.0938	-3.4396	-3.1458	-3.0292	-3.4146	-91.138	132.773	-14.249	166.787	190.119	123.682	177.423	-96.132	70.519	-54.309	220.772	-57.804	228.284	224.329	-39.586	26.004	0.00014766	0.00053988	0.00015989	1179.7	3.8455e-06	5.8113e-06	1278.6	246.48	4.2517e-06	2.3054e-06	309.04	86.039	67.965	20.242	6.9041e-07	27.606	0.00019193	0.00018972	5.2784e-05	1162.6	2.0636e-06	2.0652e-06	1256.6	244.94	2.0682e-06	2.0786e-06	304	85.609	68.082	20.447	2.0877e-06	27.765	83.414	-39.375	-37.529	-95.936	-11.024	93.363	-96.049	-88.843	-34.232	55.057	-89.072	-82.343	-82.173	-75.311	31.527	-75.336	-8191	255	
615.722	1	1	0	0	0.20582	0.032021	0.24058	0.18815	0.15537	0.14744	0.44752	0.11175	0.16598	0.20225	0.13144	0.12488	0.14053	0.16795	0.25182	0.20277	-2.6063	-2.9604	-3.2875	-3	-3.3333	-3.0396	-3.2562	-3.6312	-2.8458	-3.2958	-3.3937	-2.9146	-3.4042	-3.0083	-3.0438	-3.2625	-102.093	-106.320	110.380	182.143	212.842	-10.677	207.039	209.561	-91.659	55.604	126.331	-60.924	100.680	-15.635	42.058	83.446	0.00041373	0.00071163	7.7601e-05	1180.3	3.4187e-06	4.8641e-06	1277.6	245.16	3.6058e-06	1.8042e-07	307.29	85.991	67.999	20.327	2.6264e-06	27.564	0.00019353	0.00019101	5.2517e-05	1161.4	2.0908e-06	2.072e-06	1255.7	244.19	2.1304e-06	2.093e-06	303.22	85.342	67.997	20.481	2.0966e-06	27.843	54.270	-39.691	-12.081	-96.152	27.705	99.957	-96.098	-88.768	-89.202	-16.903	-88.992	-82.384	-82.033	-75.470	-14.042	-75.861	-8191	255	
615.818	1	1	0	0	0.19143	0.1568	0.070185	0.24541	0.15284	0.090957	0.32445	0.2256	0.13169	0.24815	0.17623	0.18808	0.03949	0.16081	0.039111	0.084466	-2.4229	-3.1604	-3.3542	-2.9292	-3.3438	-3.2	-3.2042	-3.3729	-3.0271	-2.9125	-3.4167	-2.9208	-3.3375	-3.1604	-2.9729	-3.55	-7.683	205.446	-30.570	216.763	-53.127	93.618	176.590	210.530	-24.175	7.828	-99.615	215.679	166.498	117.533	110.577	-78.636	0.00050479	0.0001977	9.3902e-05	1180.2	3.3334e-06	2.1302e-06	1280	245.08	5.7289e-06	4.5989e-06	308.33	86.02	67.753	20.223	1.1188e-06	27.283	0.00019538	0.00019257	5.2806e-05	1162.1	2.1e-06	2.0875e-06	1256.8	243.92	2.0928e-06	2.0878e-06	303.5	85.208	67.991	20.45	2.0693e-06	27.672	50.099	227.813	3.513	-96.090	-68.129	110.367	-96.036	-88.967	-54.520	85.381	-89.110	-82.325	-81.909	-75.394	-22.493	-75.536	-8191	255	
615.914	1	1	0	0	0.20399	0.091565	0.11366	0.16128	0.051861	0.11259	0.28964	0.16866	0.26936	0.20502	0.23657	0.11901	0.073935	0.055981	0.037579	0.29016	-2.5958	-2.9021	-3.0938	-2.9437	-3.2542	-3.1688	-3.0271	-3.3521	-2.9042	-3.0438	-3.3292	-2.9354	-3.1208	-3.1375	-2.9167	-3.4229	-82.531	79.695	-47.074	216.525	-68.069	88.945	179.750	150.686	-54.595	-91.075	142.207	234.675	194.814	175.989	36.771	-90.669	0.00042924	0.00053914	6.0009e-05	1179.6	2.8043e-06	1.6721e-06	1280.3	246.47	2.8541e-06	5.0337e-06	306.67	85.707	68.304	20.161	2.1944e-06	27.481	0.00019592	0.00019049	5.3238e-05	1160.7	2.1052e-06	2.0811e-06	1256.9	244.5	2.0892e-06	2.083e-06	302.63	85.22	68.101	20.464	2.1122e-06	27.812	53.363	-80.431	-37.555	-96.228	-47.472	16.847	-96.162	-88.849	147.283	42.621	-88.558	-81.984	-82.186	-74.814	-83.935	-75.842	-8191	255	
616.010	1	1	0	0	0.094179	0.17993	0.35	0.066345	0.25485	0.074006	0.24298	0.21212	0.10061	0.099584	0.010789	0.124	0.17727	0.25121	0.23635	0.18701	-2.7458	-3.1417	-3.4021	-3.2104	-3.2229	-3.2208	-2.9708	-3.3187	-3.0208	-2.8812	-3.375	-2.9271	-3.1521	-3.1708	-2.6354	-3.2896	-93.548	184.621	98.634	-98.773	191.073	30.843	224.850	-91.784	-35.848	245.247	-39.508	166.426	-85.165	-33.207	-23.595	-11.747	0.00033849	0.00033146	5.2085e-05	1180.8	3.328e-06	1.1804e-06	1271.1	244.78	5.0859e-06	1.7219e-06	309.39	85.597	68.099	20.144	6.2276e-06	27.558	0.00019603	0.00019281	5.2969e-05	1160.8	2.1057e-06	2.07e-06	1255.9	244.05	2.0985e-06	2.0844e-06	303.72	85.266	68.1	20.447	2.0716e-06	27.811	18.263	232.377	-71.594	-96.093	85.531	62.669	-96.063	-88.751	26.633	18.079	-88.592	-82.859	-82.011	-75.030	15.163	-75.419	-8191	255	
616.106	1	1	0	0	0.31725	0.088101	0.1483	0.22335	0.16648	0.21277	0.27812	0.10956	0.22348	0.19247	0.25235	0.086645	0.097037	0.12387	0.032523	0.066339	-2.6521	-2.7854	-3.2687	-2.9875	-3.0625	-3.4521	-3.0125	-3.3396	-3.0687	-3.0625	-3.4146	-3.1146	-3.2292	-3.3417	-3.0375	-3.3604	118.990	5.310	-64.393	93.414	-102.532	-38.713	146.495	246.401	15.796	180.841	-95.717	18.010	204.948	201.409	248.216	239.304	0.00049989	0.00046327	0.00010372	1177.5	3.9069e-06	9.2518e-06	1274.9	245.99	4.0205e-06	2.3151e-06	308.76	86.35	67.753	20.129	3.3429e-06	27.572	0.00019305	0.0001864	5.2482e-05	1161	2.0531e-06	2.0474e-06	1255.3	244.39	2.0655e-06	2.0598e-06	303.29	85.605	68.003	20.417	2.0323e-06	27.848	71.399	-6.728	38.525	-95.906	232.459	56.797	-96.044	-88.808	19.492	252.977	-89.039	-82.552	-81.623	-74.870	9.649	-75.401	-8191	255	
616.227	1	1	0	0	0.083726	0.10404	0.15	0.12519	0.20432	0.1272	0.13513	0.3082	0.21108	0.29455	0.063575	0.040659	0.1175	0.083166	0.23611	0.17691	-2.6083	-2.8979	-3.375	-3.2729	-2.9813	-3.4333	-3.0292	-3.175	-3.0958	-2.9688	-3.4917	-3.2104	-3.0979	-3.5021	-2.7792	-3.3375	18.984	-65.693	201.014	215.460	-65.008	112.232	152.046	147.596	-99.933	221.639	2.108	246.006	-61.014	154.596	-37.487	104.908	0.00044204	0.00022868	0.00010298	1181.9	5.8063e-06	4.1822e-06	1280.1	246.4	3.9195e-06	4.0463e-06	309.16	85.818	68.092	20.2	1.1166e-06	27.415	0.00019091	0.00018456	5.1567e-05	1163.4	2.0339e-06	2.0183e-06	1256.9	244.56	2.0512e-06	2.0185e-06	304.26	85.487	68.033	20.438	2.0419e-06	27.83	31.286	7.697	-95.863	-95.972	-26.225	72.726	-95.889	-88.879	46.957	163.388	-89.036	-82.595	-81.955	-75.441	118.215	-75.528	-8191	255	
616.323	1	1	0	0	0.2383	0.19618	0.20577	0.18241	0.081616	0.021038	0.31511	0.31023	0.299	0.15572	0.088727	0.16214	0.24655	0.21953	0.13093	0.1766	-2.7396	-2.8729	-3.2229	-3.3979	-3.0125	-3.4083	-2.9833	-3.3167	-3.2188	-2.8229	-3.5458	-3.2625	-3.0021	-3.4375	-3.1208	-3.1021	-50.320	198.176	12.122	177.922	118.874	12.828	176.975	247.611	-80.461	65.822	-51.972	98.044	224.699	225.668	164.206	204.574	0.00018089	2.7746e-05	2.8516e-05	1183	6.9319e-06	3.6629e-06	1280.6	247.07	4.8638e-06	5.0094e-07	308.97	86.455	67.993	20.276	4.8234e-06	27.521	0.00018914	0.00018477	5.2032e-05	1161.9	2.0351e-06	2.0357e-06	1257.6	244.78	2.0559e-06	2.0497e-06	303.83	85.487	68.02	20.471	2.0623e-06	27.793	74.064	119.639	78.938	-95.865	-11.078	170.813	-96.170	-88.814	-50.559	71.232	-88.873	-82.727	-81.988	-75.109	69.751	-75.430	-8191	255	
616.417	1	1	0	0	0.25755	0.069186	0.31783	0.25438	0.11789	0.13282	0.15613	0.27812	0.23424	0.0085111	0.13247	0.25572	0.32029	0.095575	0.2342	0.19519	-2.8854	-2.7708	-3.2417	-3.3229	-2.9	-3.2167	-3.2146	-3.0187	-3.3583	-2.9562	-3.1958	-3.2583	-2.9271	-3.4917	-3.0125	-3.075	137.126	-21.616	-44.171	216.402	-84.254	151.870	187.762	135.891	116.712	73.743	-74.568	-88.889	212.017	-58.172	160.003	-80.224	0.00049953	0.00043662	0.00012079	1180.2	5.1786e-06	4.8414e-06	1274.3	245.45	3.4144e-06	5.6643e-06	309.54	85.25	67.891	20.12	5.7518e-06	27.608	0.00019043	0.00018883	5.1699e-05	1160.4	2.0902e-06	2.0461e-06	1255.2	244.45	2.0372e-06	2.0193e-06	304.23	85.31	67.904	20.415	2.0615e-06	27.871	16.650	10.475	-35.201	-96.112	-18.632	136.331	-95.898	-88.668	-1.887	78.820	-88.672	-82.851	-81.918	-74.955	130.030	-75.640	-8191	255	
616.514	1	1	0	0	0.28685	0.10302	0.296	0.19527	0.044417	0.10674	0.22223	0.17429	0.09492	0.14037	0.13597	0.020951	0.087245	0.14842	0.14326	0.2158	-2.9625	-2.9167	-3.2646	-3.3	-2.9146	-3.2687	-3.1042	-2.9479	-3.1792	-2.8208	-3.2292	-3.3854	-2.825	-3.4854	-3.025	-2.9458	4.443	-49.376	92.911	210.118	114.222	53.317	157.968	143.762	76.942	106.863	-78.511	-21.615	-60.888	59.946	199.308	-99.662	0.00065127	0.00029945	3.6565e-05	1178.2	3.0057e-06	9.2748e-06	1274.9	245.47	6.482e-06	4.8538e-06	308.6	86.366	68.11	20.222	2.2085e-06	27.62	0.0001883	0.00018642	5.1599e-05	1160.6	2.0621e-06	2.0194e-06	1256.4	244.57	2.0417e-06	2.0305e-06	304.2	85.459	68.064	20.504	2.0535e-06	27.803	32.029	-3.995	242.407	-96.078	33.317	44.113	-96.192	-89.147	9.382	55.540	-88.968	-82.425	-82.246	-75.215	125.125	-75.896	-8191	255	
616.610	1	1	0	0	0.12763	0.13079	0.097353	0.12458	0.10785	0.18514	0.14732	0.10263	0.12624	0.14465	0.17135	0.18328	0.17729	0.36146	0.1639	0.079096	-2.9583	-2.9125	-3.0312	-3.2979	-3.0958	-3.3458	-3.2062	-3.0229	-3.4854	-2.95	-3.1042	-3.4437	-2.8604	-3.2875	-3.0792	-2.8937	-1.548	135.436	84.225	244.692	58.092	-19.668	211.188	242.265	-13.524	132.177	239.773	226.663	169.529	251.495	106.160	-86.310	0.00039958	0.00025408	0.0001494	1178.9	3.0247e-06	3.6928e-06	1278.8	246.32	6.7673e-06	3.0786e-06	308.92	85.693	67.493	20.07	7.2889e-07	27.39	0.0001924	0.00018804	5.1923e-05	1161.9	2.0774e-06	2.0497e-06	1255.8	244.61	2.0694e-06	2.0637e-06	303.57	85.103	67.907	20.433	2.0662e-06	27.772	21.214	18.584	-34.041	-96.103	-4.284	37.667	-96.037	-88.653	-20.179	150.563	-88.964	-82.397	-81.963	-74.803	155.561	-74.964	-8191	255	
616.706	1	1	0	0	0.099643	0.12832	0.068051	0.22424	0.2191	0.047871	0.34536	0.3214	0.11178	0.17758	0.015379	0.36119	0.060269	0.21123	0.1208	0.16092	-2.9375	-3.0312	-2.9188	-3.4354	-2.7875	-3.3604	-3.2	-3.0667	-3.3354	-3.1229	-3.0708	-3.3937	-2.9875	-3.2229	-3.4021	-2.925	-34.138	100.592	-15.705	204.740	154.881	-12.399	210.556	207.052	-68.583	-0.064	74.125	239.403	-90.135	89.525	184.526	-81.820	0.00046832	7.9142e-05	0.00016054	1178.3	5.4337e-06	1.672e-06	1279.8	247.02	1.3684e-06	1.5876e-06	307.68	86.128	67.973	20.156	2.3303e-06	27.503	0.00019146	0.00019184	5.2304e-05	1161.1	2.0705e-06	2.063e-06	1256.4	244.84	2.1103e-06	2.1129e-06	303.26	85.362	68.062	20.486	2.0859e-06	27.898	35.108	-33.409	-26.810	-96.090	-55.474	-71.887	-95.872	-88.818	156.495	36.901	-88.727	-82.479	-81.792	-75.337	197.531	-75.848	-8191	255	
616.802	1	1	0	0	0.10373	0.091787	0.10862	0.22789	0.34857	0.047792	0.3553	0.17064	0.12961	0.13174	0.1334	0.080459	0.22623	0.3629	0.14692	0.29313	-3.0521	-3.1312	-3.0833	-3.5292	-2.9125	-3.2354	-3.6354	-3.0021	-3.4646	-3.2062	-3.0646	-3.4104	-3.0208	-3.2042	-3.2125	-2.9021	67.489	-95.104	212.425	-102.793	186.874	-32.650	201.022	234.587	198.219	74.539	-16.238	129.405	-63.451	66.661	-72.937	230.439	0.00030263	0.000147	0.00012217	1177.7	5.0802e-06	4.7052e-06	1278.3	245.84	4.9124e-06	4.6038e-06	308.44	85.655	67.714	20.216	5.3064e-06	27.641	0.00019536	0.00019129	5.2844e-05	1160.2	2.0764e-06	2.0722e-06	1256.2	244.68	2.0883e-06	2.068e-06	303.18	85.272	67.9	20.448	2.0406e-06	27.877	70.626	59.576	-31.759	-95.774	-39.106	57.578	-96.101	-88.794	-10.842	71.839	-88.838	-82.407	-81.839	-75.196	-41.764	-75.368	-8191	255	
616.898	1	1	0	0	0.14572	0.020984	0.098631	0.18623	0.065581	0.19265	0.32947	0.35495	0.042093	0.20407	0.15681	0.27618	0.19943	0.086594	0.23352	0.086489	-2.8125	-3.1083	-2.875	-3.6333	-2.9479	-3.1	-3.4062	-3.1	-3.3417	-3.425	-2.9854	-3.4021	-3.1958	-2.9813	-3.1625	-3.0479	165.458	252.961	83.714	-99.939	14.911	251.048	231.779	161.180	-78.675	5.515	185.747	211.285	234.977	170.099	-83.274	197.100	0.00056946	0.00032316	8.029e-05	1175.1	3.9663e-06	4.255e-06	1275.5	245.46	5.016e-06	1.1708e-06	309.07	85.767	67.899	20.213	3.9316e-06	27.381	0.00018987	0.00018563	5.2117e-05	1160.6	2.0406e-06	2.0537e-06	1255.6	244.51	2.0598e-06	2.0332e-06	303.58	85.172	67.905	20.496	2.0739e-06	27.723	31.695	-1.000	51.029	-95.873	71.336	127.378	-96.085	-88.779	139.335	63.348	-88.816	-82.076	-81.802	-74.957	140.737	-75.572	-8191	255	
616.994	1	1	0	0	0.29684	0.20871	0.24528	0.094631	0.15213	0.2817	0.14674	0.095791	0.12679	0.22532	0.13918	0.06288	0.22479	0.33414	0.095109	0.12165	-2.7271	-3.1396	-2.8688	-3.5833	-2.9583	-2.925	-3.3937	-3.0312	-3.4208	-3.1813	-2.9667	-3.3833	-3.0687	-3.0771	-3.3229	-2.925	-22.453	-59.168	37.638	-37.321	-14.570	202.187	224.416	241.215	204.134	33.770	-83.867	-28.060	229.028	-47.969	249.798	-60.122	0.00029846	0.00050986	5.6483e-05	1180.2	3.3335e-06	3.8381e-06	1274.2	245.55	2.0983e-07	1.2621e-06	309.83	85.394	68.078	20.147	9.2212e-07	27.684	0.00019346	0.00018572	5.2496e-05	1162.3	2.1149e-06	2.0978e-06	1254.8	244.35	2.1021e-06	2.0887e-06	304.23	85.148	67.827	20.398	2.0831e-06	27.898	32.049	-6.630	-82.485	-95.953	247.480	86.331	-96.041	-88.431	-74.446	210.152	-89.086	-82.075	-81.921	-75.148	22.628	-75.740	-8191	255	
617.115	1	1	0	0	0.15266	0.044058	0.16414	0.14923	0.21168	0.09104	0.16887	0.33951	0.08441	0.078003	0.077635	0.23852	0.33378	0.37759	0.16141	0.13409	-2.6896	-3.3333	-2.9792	-3.5167	-3.0021	-2.9667	-3.5417	-2.9437	-3.2625	-3.3812	-2.9833	-3.2708	-3.2375	-3.0583	-3.3333	-3.0271	3.631	7.608	-22.087	245.479	100.170	-98.014	-52.090	243.231	9.279	59.904	8.407	-78.880	215.783	212.133	-34.335	88.646	0.00035722	0.00037514	5.3377e-05	1176.4	1.9281e-06	5.395e-06	1276.4	245.95	3.8882e-06	2.0812e-06	309.27	85.832	67.576	20.215	3.4802e-06	27.586	0.00019511	0.00019037	5.2746e-05	1160.2	2.0841e-06	2.0738e-06	1255.2	244.46	2.1239e-06	2.0675e-06	303.83	85.225	67.867	20.403	2.075e-06	27.822	47.549	-87.391	143.104	-95.871	16.722	36.836	-95.937	-88.611	-0.015	-72.455	-88.835	-82.505	-81.783	-75.069	5.775	-75.364	-8191	255	
617.211	1	1	0	0	0.16593	0.12205	0.22233	0.2223	0.058273	0.39218	0.23231	0.17513	0.039439	0.14297	0.062861	0.1752	0.13225	0.19609	0.032942	0.12329	-2.8	-3.2646	-2.9146	-3.3458	-3.1813	-3.0646	-3.5646	-3.0458	-3.1208	-3.3333	-2.8229	-3.425	-3.3042	-2.7167	-3.1917	-3.1104	161.805	249.409	51.693	174.727	105.623	-44.700	157.077	241.781	8.976	67.539	11.894	200.761	-83.717	149.142	63.450	210.956	0.00029395	0.00025181	0.00011675	1178.5	3.1288e-06	5.5308e-06	1274	245.98	3.1939e-06	3.5037e-06	309.96	85.761	67.78	20.163	1.7653e-06	27.673	0.00019305	0.00018955	5.2564e-05	1161.4	2.0734e-06	2.0558e-06	1255.7	244.37	2.0818e-06	2.0688e-06	304.05	85.437	67.871	20.437	2.0454e-06	27.85	83.773	-56.584	-31.838	-95.959	-49.140	92.012	-96.113	-88.823	-71.051	51.601	-88.993	-82.226	-82.048	-74.948	193.252	-75.487	-8191	255	
617.307	1	1	0	0	0.10244	0.1617	0.20965	0.1443	0.070162	0.10218	0.33428	0.14667	0.16351	0.20098	0.20826	0.097599	0.2663	0.10684	0.090986	0.28729	-2.5667	-3.1583	-3.0125	-3.2375	-3.1458	-2.7896	-3.5479	-3.1396	-2.9417	-3.3854	-2.8271	-3.0792	-3.3292	-2.8	-3.1083	-3.0563	156.587	80.290	62.394	178.968	48.079	223.297	173.467	-100.810	176.586	71.357	222.299	-58.381	245.054	-71.439	58.100	132.137	0.00041838	0.00018332	0.00014048	1178.9	1.888e-06	4.924e-06	1276.5	246.41	5.0924e-06	5.0092e-06	308.29	85.846	68.191	20.293	4.6938e-06	27.633	0.00019058	0.00018307	5.1623e-05	1162.5	2.0506e-06	2.0398e-06	1257.3	244.96	2.0406e-06	2.0234e-06	302.53	85.356	68.033	20.463	2.0455e-06	27.889	37.275	-77.042	-1.191	-95.885	-31.769	54.794	-96.063	-88.886	-60.223	72.207	-88.657	-82.634	-81.984	-75.522	54.154	-75.556	-8191	255	
617.403	1	1	0	0	0.067927	0.26699	0.074915	0.063871	0.092275	0.28428	0.23124	0.38947	0.10324	0.19604	0.063103	0.12766	0.22492	0.18179	0.26568	0.35055	-2.5854	-3.2625	-3.0708	-3.2792	-3.1083	-2.9813	-3.5229	-3.275	-3.0333	-3.5104	-3.0229	-3.2417	-3.4813	-2.9042	-3.3229	-3.2313	-47.993	-41.898	236.470	-57.475	151.497	-83.448	249.934	192.170	61.458	-35.383	250.382	187.095	194.316	168.837	159.103	-19.822	0.00026713	0.00022478	0.00011283	1183.5	6.6848e-07	5.451e-06	1276.4	245.72	6.8382e-06	1.4075e-06	308	86.375	67.739	20.058	3.0056e-06	27.658	0.00018974	0.00018437	5.1542e-05	1163.2	2.054e-06	2.0466e-06	1256.6	244.58	2.0975e-06	2.0317e-06	303.82	85.576	68.018	20.451	2.0653e-06	27.881	23.434	229.911	24.396	-96.071	93.903	65.593	-96.091	-89.065	224.375	82.267	-88.840	-82.696	-82.044	-75.037	30.892	-75.724	-8191	255	
617.498	1	1	0	0	0.20258	0.18109	0.12761	0.09388	0.12907	0.30728	0.15058	0.22679	0.073379	0.14226	0.060931	0.12491	0.20933	0.19022	0.074935	0.1146	-2.5938	-3.3521	-3.0167	-3.1083	-3.3104	-3.0458	-3.4354	-3.2854	-2.9188	-3.5104	-3.1104	-3.1125	-3.3417	-2.9875	-3.2271	-3.3271	246.862	207.438	207.019	243.119	44.191	207.389	192.871	210.742	195.670	-94.988	-22.237	217.340	222.492	-42.383	-82.588	78.338	0.00031223	0.00021831	3.4256e-05	1175.3	1.607e-06	3.5104e-06	1276.6	246.57	5.8031e-06	2.0101e-06	308.85	85.974	68.025	20.198	3.8573e-06	27.504	0.00019104	0.00018673	5.2317e-05	1160	2.0798e-06	2.0743e-06	1257.2	244.97	2.1022e-06	2.0842e-06	303.49	85.124	68.078	20.464	2.1168e-06	27.794	44.284	-92.734	-42.115	-95.929	162.252	79.901	-95.840	-88.813	-46.189	221.459	-89.076	-82.667	-81.849	-74.793	-0.040	-75.639	-8191	255	
617.596	1	1	0	0	0.1944	0.13644	0.044331	0.24381	0.18521	0.16741	0.19546	0.11286	0.24137	0.09792	0.27851	0.08119	0.126	0.17147	0.21324	0.13493	-2.35	-3.2875	-3.0187	-3.1417	-3.2938	-2.8771	-3.4167	-3.3583	-2.825	-3.5042	-3.4458	-3.0333	-3.3563	-2.9833	-3.0167	-3.2	236.154	231.014	87.596	209.669	187.696	19.059	121.062	230.002	-60.994	-52.704	-68.666	249.486	74.201	211.092	-85.622	187.425	8.86e-05	0.00037168	0.0001058	1176.5	3.237e-06	7.4104e-06	1274.4	245.91	7.8952e-06	1.5091e-06	309.12	85.395	67.623	20.193	2.343e-06	27.507	0.0001921	0.00018886	5.2664e-05	1161.8	2.0565e-06	2.0418e-06	1255.7	244.1	2.0543e-06	2.0417e-06	303.56	85.039	68.015	20.443	2.0536e-06	27.856	49.983	-20.519	26.144	-96.064	96.642	71.604	-96.034	-88.799	-58.499	32.690	-88.687	-82.507	-81.944	-74.894	54.918	-75.328	-8191	255	
617.715	1	1	0	0	0.37051	0.10814	0.24107	0.040717	0.12098	0.19339	0.27513	0.2888	0.30855	0.13543	0.10892	0.16538	0.12341	0.28678	0.23849	0.057769	-2.5167	-3.2125	-3.0563	-3.0583	-3.3104	-2.8667	-3.2521	-3.4729	-2.85	-3.2188	-3.3438	-2.9979	-3.3917	-3.0771	-3.05	-3.2958	-68.408	113.291	174.543	19.696	87.762	-89.596	195.234	-97.981	185.465	6.145	93.826	180.645	-21.050	210.820	-17.630	223.824	0.00029274	0.00038696	0.0001393	1182.2	2.6955e-06	5.7656e-06	1279.7	245.92	3.6603e-06	3.2824e-06	310.35	86.213	68.355	20.238	2.8202e-06	27.651	0.000191	0.00018835	5.1437e-05	1162.2	2.0696e-06	2.0174e-06	1257.2	244.84	2.067e-06	2.0366e-06	303.48	85.29	68.214	20.468	2.0583e-06	27.923	41.508	241.683	233.053	-95.875	18.107	62.590	-95.890	-88.716	-63.622	54.760	-89.306	-82.499	-82.142	-75.485	-19.543	-75.320	-8191	255	
617.811	1	1	0	0	0.1276	0.23785	0.28023	0.047127	0.07445	0.14297	0.18408	0.19577	0.14817	0.19737	0.17776	0.20978	0.15593	0.11367	0.29051	0.029911	-2.5292	-3.2583	-3.15	-3.0729	-3.4458	-3.0542	-3.2708	-3.3208	-2.8979	-3.3542	-3.3396	-2.7479	-3.2687	-3.0146	-2.9729	-3.3438	184.313	179.986	203.733	206.925	139.224	233.622	180.796	44.433	-86.907	114.405	69.799	-58.171	159.995	-105.416	75.833	-1.212	0.00036573	0.00013778	0.00010915	1180.1	3.2975e-06	5.3774e-06	1278	246.81	2.7732e-06	4.9169e-06	306.94	85.114	67.529	20.051	8.228e-06	27.311	0.00019516	0.00019208	5.3542e-05	1162.2	2.1428e-06	2.1028e-06	1255.1	244.41	2.1008e-06	2.0872e-06	302.03	84.883	67.678	20.313	2.0725e-06	27.677	31.257	-13.139	17.660	-96.065	-37.287	59.963	-96.040	-88.533	-84.375	100.951	-88.979	-82.552	-82.016	-75.556	71.364	-75.657	-8191	255	
617.907	1	1	0	0	0.18888	0.094616	0.067122	0.21285	0.21733	0.14602	0.28636	0.15835	0.13911	0.24379	0.18376	0.20647	0.089027	0.10912	0.01201	0.06699	-2.4771	-3.1375	-3.3021	-2.8833	-3.35	-3.0604	-2.9854	-3.4208	-2.8771	-3.1604	-3.1417	-2.9208	-3.4542	-3.2104	-2.7771	-3.3187	73.533	-14.893	210.261	188.554	150.192	75.229	236.302	136.886	53.336	245.441	-77.567	204.667	4.170	-49.440	13.534	-25.526	0.00049523	0.00023296	5.6527e-05	1173.9	4.3687e-06	8.2075e-06	1273.4	244.06	2.7203e-06	3.8825e-06	310.06	85.544	67.667	19.94	2.173e-06	27.709	0.00019592	0.00018953	5.3335e-05	1156.3	2.1282e-06	2.0894e-06	1252.9	243.85	2.1329e-06	2.1119e-06	303.62	85.275	67.928	20.37	2.1302e-06	27.842	58.205	27.464	251.498	-95.759	12.367	86.353	-95.835	-88.494	249.746	37.586	-88.811	-82.315	-81.932	-75.320	16.638	-75.699	-8191	255	
618.003	1	1	0	0	0.075811	0.17464	0.056788	0.10237	0.050329	0.29259	0.034845	0.31016	0.08717	0.096012	0.18224	0.16826	0.14405	0.23654	0.171	0.22345	-2.7604	-3.1063	-3.2188	-3.1937	-3.2521	-3.0833	-2.9979	-3.5479	-2.9625	-3.1729	-3.3708	-2.8208	-3.2708	-3.1063	-2.8021	-3.3625	41.641	187.884	171.225	231.657	91.027	68.839	126.771	204.048	72.005	-49.685	182.288	245.121	-106.050	-71.632	227.030	115.255	0.00021528	0.00036643	0.00015307	1181.7	3.1114e-06	3.1057e-07	1274	246.26	7.5331e-06	5.0342e-06	307.41	85.126	67.919	20.169	6.9877e-07	27.536	0.00019602	0.00019203	5.4428e-05	1161.6	2.1042e-06	2.1229e-06	1255.4	244.75	2.1145e-06	2.1159e-06	303.23	85.131	68.041	20.413	2.1039e-06	27.815	56.054	-102.074	-18.830	-95.929	194.666	146.135	-95.929	-88.570	-43.868	88.496	-88.875	-82.506	-81.998	-74.797	-64.818	-75.327	-8191	255	
618.099	1	1	0	0	0.17959	0.15216	0.20568	0.0048143	0.23356	0.14145	0.32215	0.29371	0.10427	0.13185	0.25846	0.22761	0.15438	0.066112	0.15115	0.12182	-2.575	-3.1521	-3.2521	-3.0729	-3.1479	-3.2083	-3.0104	-3.4604	-3.0375	-2.9792	-3.3771	-2.9146	-3.1646	-3.1667	-2.8521	-3.4104	-24.247	-88.480	118.338	77.773	61.406	169.892	212.450	222.646	168.539	-60.550	39.368	228.594	95.162	198.276	10.094	214.208	0.00024574	0.00032899	6.3908e-05	1178.9	1.6935e-06	3.4237e-06	1275	245.3	6.8237e-06	2.8422e-06	307.81	85.649	68.051	20.177	3.1648e-06	27.668	0.00020027	0.00019218	5.3147e-05	1162.2	2.1866e-06	2.1192e-06	1255.4	244.25	2.1836e-06	2.1256e-06	303.19	85.145	68.072	20.451	2.1176e-06	27.869	45.334	-45.839	17.813	-96.077	9.201	83.072	-96.021	-88.808	-54.245	44.695	-88.994	-82.079	-81.966	-75.316	15.217	-75.332	-8191	255	
618.195	1	1	0	0	0.0896	0.13133	0.045515	0.17885	0.26069	0.25066	0.27944	0.090897	0.30471	0.12718	0.10795	0.22681	0.20873	0.12351	0.18266	0.047798	-2.6292	-3.0021	-3.2792	-3.1271	-3.125	-3.2438	-3.1667	-3.3063	-3.1292	-2.9167	-3.3896	-3.0208	-3.2792	-3.2833	-3.0083	-3.5104	-45.461	141.069	186.788	-92.566	227.496	81.155	212.160	-71.026	31.057	240.750	-76.179	98.425	3.943	234.768	-55.782	229.357	0.00054606	0.00016795	0.00020379	1173.2	2.9608e-06	2.9515e-06	1276.9	246.72	2.9485e-06	3.6603e-06	308.29	86.507	67.77	20.157	2.9431e-06	27.582	0.00019482	0.00019193	5.3712e-05	1159.1	2.1123e-06	2.0905e-06	1256.2	244.74	2.1326e-06	2.1017e-06	304.12	85.644	68.012	20.457	2.124e-06	27.824	43.411	251.984	-16.436	-95.927	-13.869	64.881	-96.102	-88.869	126.036	85.059	-88.746	-82.150	-81.727	-74.821	-18.784	-75.838	-8191	255	
618.316	1	1	0	0	0.17051	0.14715	0.069366	0.26995	0.046334	0.22279	0.2812	0.25417	0.34439	0.32025	0.087154	0.02574	0.1202	0.204	0.048124	0.21555	-2.7146	-2.9542	-3.3271	-2.9292	-3.1	-3.2167	-2.9188	-3.3396	-3.0958	-3.0146	-3.5083	-3.0646	-3.1083	-3.425	-2.8958	-3.1042	21.245	-85.244	7.186	182.562	20.800	170.810	173.178	176.294	157.356	-28.013	-54.136	118.998	85.348	247.966	141.247	149.758	0.00043104	0.00025793	7.1407e-05	1176.6	3.0111e-06	3.777e-06	1276.4	246.33	3.981e-06	5.5487e-06	307.44	85.592	67.89	20.238	2.765e-06	27.521	0.0001938	0.00019061	5.3376e-05	1160.8	2.0821e-06	2.0894e-06	1257.1	244.92	2.104e-06	2.0785e-06	303.31	85.193	67.971	20.425	2.128e-06	27.842	54.018	-75.525	-66.696	-96.097	223.762	78.266	-95.994	-88.638	28.854	112.933	-88.763	-82.089	-81.970	-75.115	-67.448	-75.627	-8191	255	
618.410	1	1	0	0	0.1065	0.28408	0.12726	0.15401	0.27962	0.203	0.19487	0.095488	0.18831	0.13706	0.03006	0.18912	0.051826	0.089236	0.12114	0.016188	-2.7271	-2.9	-3.3812	-3.2687	-3.0917	-3.3063	-3.15	-3.4021	-3.1521	-2.7979	-3.4542	-3.1125	-2.8563	-3.4854	-3.0312	-3.3583	1.133	100.879	27.120	240.348	247.152	-29.017	167.141	-80.311	214.942	65.298	-86.292	241.037	129.219	-44.851	-55.669	-92.898	0.000504	0.00047204	6.5386e-05	1174.5	3.7869e-06	6.9375e-06	1275.3	245.76	9.0328e-06	3.2031e-06	306.74	85.388	67.574	20.147	2.8424e-06	27.682	0.00020077	0.00019423	5.3995e-05	1159	2.096e-06	2.1012e-06	1257.3	244.5	2.1092e-06	2.0789e-06	302.99	85.068	67.974	20.42	2.0422e-06	27.805	11.464	-96.044	28.699	-95.991	99.326	77.502	-96.034	-88.656	245.737	100.299	-89.032	-82.488	-81.814	-75.145	-39.654	-75.389	-8191	255	
618.506	1	1	0	0	0.088339	0.0026483	0.24956	0.13887	0.14193	0.14103	0.24693	0.021144	0.16892	0.32226	0.11143	0.16457	0.11509	0.22329	0.22787	0.17006	-2.7771	-2.95	-3.3229	-3.3458	-2.9979	-3.5	-3.0875	-3.0812	-3.3396	-2.9917	-3.2646	-3.1813	-2.9437	-3.3667	-2.9042	-3.1979	-54.759	-88.827	248.091	161.785	197.687	186.480	220.562	39.732	-77.816	213.472	137.576	91.781	226.457	225.591	24.010	211.509	0.00049984	0.00050287	8.6339e-05	1175.4	4.5537e-06	1.1464e-06	1276	245.07	3.2113e-06	5.96e-06	308.16	85.247	67.79	20.041	6.6185e-06	27.742	0.00019113	0.00018818	5.2247e-05	1159.7	2.0898e-06	2.0387e-06	1255.3	244.25	2.0473e-06	2.0356e-06	303.33	85.103	67.879	20.369	2.0192e-06	27.86	8.047	-43.717	-62.320	-95.947	0.285	146.639	-96.046	-88.778	73.941	42.269	-88.942	-82.612	-81.668	-75.102	6.707	-75.369	-8191	255	
618.578	1	1	0	0	0.055627	0.10162	0.17069	0.15984	0.33579	0.074319	0.076263	0.29673	0.09136	0.094391	0.16796	0.27915	0.24131	0.096365	0.14038	0.088857	-2.7188	-2.8521	-3.1479	-3.3625	-2.8688	-3.3542	-3.1312	-3.0667	-3.2521	-2.9604	-3.2583	-3.4062	-2.9229	-3.2375	-2.9854	-3.0333	107.606	71.987	158.365	-96.811	52.175	-41.928	105.534	194.769	85.510	151.165	162.888	231.987	-71.288	31.418	119.315	-70.491	0.0003943	0.00030224	8.3917e-05	1177.2	4.202e-06	2.9017e-06	1275.4	245.32	4.3323e-06	3.4783e-06	308.52	85.452	67.577	20.093	2.9132e-06	27.477	0.00018938	0.00018566	5.1686e-05	1160	2.0872e-06	2.046e-06	1253.2	243.35	2.039e-06	2.0271e-06	303.55	85.136	67.764	20.324	2.0352e-06	27.778	10.892	-84.731	-84.315	-95.976	-49.320	177.686	-96.124	-88.447	-15.656	-48.182	-88.998	-81.993	-82.087	-75.085	25.573	-75.542	-8191	255	
618.676	1	1	0	0	0.077503	0.081661	0.06473	0.217	0.24509	0.017165	0.052615	0.078204	0.17153	0.1646	0.07415	0.10702	0.12283	0.028912	0.22728	0.0082146	-2.8646	-3.0396	-3.1646	-3.2104	-2.8854	-3.2979	-3.3771	-3.1854	-3.2771	-2.8812	-3.2771	-3.3646	-3.0563	-3.3292	-3.2583	-3.0479	-82.511	166.036	111.076	226.630	104.176	112.260	38.799	226.062	-14.619	113.340	211.949	126.683	65.264	234.428	244.883	39.443	0.00046695	0.00021121	8.8891e-05	1173.5	1.43e-06	5.0717e-06	1272.2	246.49	6.0277e-06	3.3526e-06	307.36	85.712	67.743	19.958	4.2374e-07	27.429	0.00018658	0.00018398	5.0763e-05	1156.1	2.0214e-06	2.0091e-06	1251.1	244.17	2.0185e-06	1.9714e-06	302.12	85.021	67.725	20.306	1.9472e-06	27.674	33.957	-79.264	139.517	-95.670	232.504	108.189	-95.735	-88.671	-99.661	-70.845	-88.873	-82.331	-81.757	-74.800	184.429	-75.390	-8191	255	
618.795	1	1	0	0	0.13647	0.070851	0.25212	0.30562	0.17268	0.039044	0.2324	0.14362	0.10892	0.15907	0.090658	0.063916	0.24688	0.26895	0.079485	0.17755	-2.8625	-2.8271	-3.2208	-3.3292	-2.8333	-3.35	-3.3958	-3.1958	-3.4583	-2.9313	-3.2604	-3.4021	-2.8604	-3.35	-3.1979	-3.0125	38.995	94.308	51.805	176.304	-17.522	3.808	174.887	-92.150	-54.950	25.225	206.844	-78.920	234.297	209.294	138.265	100.126	0.00053438	0.00018627	0.0001189	1176.1	7.5337e-06	2.6815e-06	1275.9	243.85	5.1241e-06	5.9606e-06	307.48	85.619	67.322	20.164	5.8645e-06	27.351	0.00018219	0.00017846	5.0041e-05	1156.5	1.9682e-06	1.9656e-06	1252.5	242.95	1.9598e-06	1.9556e-06	301.63	84.986	67.666	20.351	1.9367e-06	27.684	65.325	219.983	-58.958	-96.128	-36.880	130.169	-95.838	-88.661	-42.389	41.010	-88.532	-82.427	-81.807	-75.097	32.552	-75.711	-8191	255	
618.891	1	1	0	0	0.018839	0.12217	0.16192	0.31178	0.23588	0.32229	0.27238	0.052766	0.2542	0.09099	0.13767	0.18777	0.12143	0.14636	0.15063	0.22076	-2.9833	-2.9292	-2.8292	-3.4271	-2.8896	-3.1042	-3.4167	-2.7417	-3.25	-3.0438	-3.3333	-3.3875	-2.9958	-3.2917	-3.3937	-2.7333	25.064	86.512	197.543	244.050	98.536	223.959	172.642	17.721	180.948	81.099	175.556	-31.014	-16.516	85.654	-15.248	192.385	0.00061982	0.00019482	3.9212e-05	1169.2	2.761e-06	3.3434e-06	1267.1	244.59	7.1259e-06	5.6401e-06	309.09	84.905	67.792	20.159	1.5315e-06	27.365	0.00018282	0.00017859	4.9904e-05	1152	1.9312e-06	1.921e-06	1247.6	242.97	1.9168e-06	1.9019e-06	302.17	84.695	67.753	20.359	1.905e-06	27.633	45.059	191.505	-106.098	-96.108	-28.614	57.598	-95.885	-88.549	47.384	54.961	-88.750	-82.131	-81.787	-75.123	-47.661	-75.344	-8191	255	
618.987	1	1	0	0	0.29863	0.26578	0.13581	0.098621	0.16985	0.22587	0.27598	0.23924	0.083545	0.10158	0.25525	0.1051	0.18864	0.26224	0.15533	0.038446	-2.8458	-3.1688	-3.0438	-3.4146	-2.9083	-3.3042	-3.4813	-3.1042	-3.4208	-3.0771	-3.0292	-3.3646	-2.9646	-3.2729	-3.4333	-2.9375	-77.378	18.565	21.182	252.365	-73.876	213.649	170.327	6.883	-102.429	-1.802	230.106	-30.171	-101.119	43.236	214.956	167.814	0.00046943	0.00042817	6.2585e-05	1170.1	2.8765e-06	2.6208e-06	1266.6	246.06	5.8384e-06	2.1616e-06	307.28	85.968	67.805	20.219	2.9534e-06	27.545	0.00017419	0.00016988	4.7848e-05	1152.9	1.9014e-06	1.8639e-06	1245.7	243.56	1.8927e-06	1.8747e-06	301.94	85.075	67.691	20.396	1.938e-06	27.757	40.876	-22.872	27.581	-95.995	195.718	122.345	-96.177	-88.628	215.995	5.405	-88.901	-82.444	-81.988	-74.931	45.598	-75.512	-8191	255	
619.108	1	1	0	0	0.10717	0.058047	0.1879	0.20359	0.18961	0.10388	0.10689	0.025022	0.28642	0.17224	0.12164	0.20941	0.020017	0.11273	0.060497	0.1383	-2.8854	-3.1833	-2.95	-3.4771	-2.9604	-3.1083	-3.5021	-3.0729	-3.2146	-3.075	-3.0458	-3.4542	-3.0667	-2.9229	-3.2896	-2.8271	-62.093	-41.416	163.968	179.590	239.931	40.052	212.582	61.023	47.711	199.015	-93.212	146.283	71.435	100.925	-54.230	137.569	0.00037138	0.00037949	6.5674e-05	1176.6	5.3307e-06	4.3931e-06	1267.9	245.58	4.5127e-06	7.2153e-06	308.49	85.614	67.848	20.174	5.4151e-07	27.649	0.00017569	0.00017152	4.825e-05	1153.6	1.9249e-06	1.924e-06	1246.9	243.81	1.9039e-06	1.9016e-06	302.61	85.118	67.817	20.393	1.9201e-06	27.851	40.203	-30.756	65.177	-95.903	-57.824	95.730	-96.108	-88.743	-32.680	6.579	-88.746	-82.795	-81.847	-75.289	-105.614	-75.411	-8191	255	
619.180	1	1	0	0	0.18273	0.27286	0.35217	0.25212	0.29347	0.26982	0.054971	0.21937	0.085384	0.2527	0.12845	0.14808	0.13453	0.15516	0.30084	0.071629	-2.7625	-2.9813	-2.8396	-3.6042	-3.1271	-3.1417	-3.55	-3.0042	-3.1896	-3.1396	-2.9938	-3.3042	-2.9646	-2.9396	-3.3	-2.8667	57.132	69.536	-66.863	243.914	27.936	148.932	96.339	193.980	-62.935	-32.717	-57.040	128.224	246.907	-9.301	-79.213	-61.580	0.00054298	0.00070787	9.3598e-05	1171.9	2.4301e-06	1.381e-06	1261.9	244.56	7.0122e-06	3.9199e-06	307.91	86.445	68.235	20.159	2.0288e-06	27.561	0.00017549	0.00017736	4.8225e-05	1152.5	1.9232e-06	1.8993e-06	1247.1	243.22	1.901e-06	1.9169e-06	302.06	85.297	67.923	20.418	1.8953e-06	27.801	47.141	-46.113	-40.851	-96.020	151.889	116.040	-95.960	-88.623	-99.957	64.054	-88.639	-82.335	-82.080	-75.559	-58.262	-75.148	-8191	255	
619.276	1	1	0	0	0.3542	0.037715	0.12583	0.11946	0.12739	0.11403	0.19974	0.12172	0.26996	0.17295	0.24087	0.092273	0.3676	0.2012	0.16185	0.20924	-2.7562	-3.0958	-2.9104	-3.2771	-3.0062	-2.9375	-3.4229	-2.8292	-2.9854	-3.2292	-2.8917	-3.2687	-3.3063	-3.05	-3.3354	-2.9688	123.258	116.875	49.877	-57.883	-91.469	83.754	171.017	215.124	229.098	-76.891	224.240	127.260	-77.651	-102.126	109.402	119.962	0.00049898	0.00051367	6.7949e-05	1172.8	2.3158e-06	3.4756e-06	1277.4	244.18	2.6309e-06	4.2039e-06	308.79	85.59	67.851	20.163	4.0545e-06	27.573	0.00017711	0.00017174	4.7831e-05	1153.5	1.8793e-06	1.8918e-06	1249.8	242.93	1.9165e-06	1.9007e-06	302.62	84.933	67.926	20.486	1.9047e-06	27.794	58.754	9.770	218.486	-95.893	-12.826	58.653	-96.032	-88.968	208.198	125.685	-88.589	-82.530	-82.166	-74.855	16.846	-75.399	-8191	255	
619.396	1	1	0	0	0.13822	0.092246	0.14558	0.17487	0.045874	0.096313	0.067923	0.27295	0.14814	0.15369	0.017322	0.19046	0.20031	0.13228	0.060018	0.1724	-2.6521	-3.1896	-2.9625	-3.4604	-3.0125	-2.7062	-3.5979	-3.1146	-3.1042	-3.2521	-2.9354	-3.275	-3.1604	-2.8792	-3.3521	-3.1958	-8.095	190.194	-85.023	194.593	200.733	-38.410	85.396	121.413	-97.064	117.561	118.123	70.236	-92.148	156.888	131.786	151.329	0.00047506	0.00053105	5.9618e-05	1178.9	6.4248e-06	4.952e-06	1275.8	244.66	1.7536e-06	9.2229e-07	307.1	86.268	68.061	20.226	3.9209e-06	27.574	0.00017757	0.00017238	4.7938e-05	1154.4	1.8721e-06	1.8611e-06	1248.6	243.56	1.8902e-06	1.8511e-06	302.12	85.444	67.923	20.433	1.8583e-06	27.798	56.559	-51.672	78.975	-96.207	-49.007	100.796	-95.987	-88.761	82.907	174.403	-89.092	-82.486	-81.989	-75.062	41.570	-75.031	-8191	255	
619.491	1	1	0	0	0.035399	0.18776	0.11573	0.35265	0.12452	0.19757	0.33128	0.025133	0.16096	0.049559	0.16806	0.13329	0.13588	0.2267	0.13905	0.17912	-2.7188	-3.3542	-2.8563	-3.3979	-3.2292	-2.9375	-3.5	-3.3021	-2.9208	-3.3375	-2.8229	-3.0667	-3.2896	-2.9479	-3.2479	-3.1604	126.232	-23.391	170.708	241.236	105.350	230.079	177.925	-82.719	146.911	4.417	116.310	246.134	205.710	194.380	55.267	179.505	0.00034445	0.00035713	0.00018804	1170.7	3.2084e-06	1.8783e-06	1265.2	246.93	3.351e-06	2.4145e-06	307.03	85.746	68.358	20.184	2.8238e-06	27.73	0.00017809	0.00016834	4.8136e-05	1154.3	1.913e-06	1.8731e-06	1245.6	244.07	1.907e-06	1.8823e-06	301.62	84.789	67.937	20.428	1.8768e-06	27.766	33.411	5.107	0.973	-95.801	50.495	20.584	-95.918	-88.684	10.720	123.384	-88.754	-82.086	-82.022	-74.868	51.776	-75.377	-8191	255	
619.587	1	1	0	0	0.14087	0.17896	0.11188	0.34519	0.26825	0.0057477	0.10886	0.1141	0.051288	0.1866	0.035853	0.12253	0.13213	0.093685	0.20067	0.29063	-2.5708	-3.375	-2.8521	-3.1958	-3.2146	-2.8625	-3.4562	-3.2083	-2.9271	-3.2062	-2.9604	-3.25	-3.2104	-2.7958	-3.2604	-3.3104	228.065	-20.538	248.849	-90.041	217.106	169.378	134.751	171.759	60.987	43.785	22.823	48.458	-79.769	81.684	159.057	28.169	0.00073255	0.00066885	7.2136e-05	1174.1	2.2721e-06	4.3762e-06	1267	244.76	3.9434e-06	4.3389e-06	306.34	85.832	67.76	20.289	2.5558e-06	27.711	0.00017487	0.00017245	4.773e-05	1152.4	1.8835e-06	1.9271e-06	1247.3	243.26	1.8977e-06	1.894e-06	301.86	85.072	67.839	20.435	1.866e-06	27.861	69.141	-36.971	243.497	-95.933	192.092	75.073	-95.615	-88.750	0.818	39.737	-88.997	-82.556	-82.071	-74.907	68.615	-75.848	-8191	255	
619.707	1	1	0	0	0.11171	0.2164	0.13411	0.14591	0.014368	0.091184	0.25549	0.070729	0.022296	0.012136	0.30538	0.035648	0.075296	0.11241	0.049232	0.20755	-2.6833	-3.2708	-2.9188	-3.25	-3.0312	-2.7938	-3.3896	-3.3937	-2.8563	-3.4479	-3.2062	-2.9292	-3.4604	-2.825	-3.3375	-3.1437	191.563	111.494	118.619	177.089	16.310	99.323	242.886	54.314	-18.730	247.142	113.312	152.440	148.783	231.301	54.461	97.527	0.00046525	0.00015349	0.00010586	1174.9	2.7823e-06	2.7457e-06	1271	245.05	1.226e-06	1.8223e-06	309.05	86.237	67.772	20.198	2.9749e-06	27.476	0.00017337	0.00016959	4.7097e-05	1152.9	1.8815e-06	1.8646e-06	1248.2	243.52	1.9096e-06	1.8792e-06	302.15	85.134	67.881	20.466	1.9305e-06	27.767	44.745	-13.324	27.907	-95.891	17.336	112.213	-96.012	-88.578	15.189	-83.042	-88.852	-82.117	-81.891	-75.027	16.052	-75.409	-8191	255	
619.804	1	1	0	0	0.038654	0.066243	0.21285	0.37378	0.2648	0.23998	0.30178	0.17119	0.17713	0.08721	0.16494	0.067918	0.11926	0.18018	0.20754	0.1268	-2.625	-3.2542	-2.9562	-3.1188	-3.3063	-3.0187	-3.2625	-3.3333	-2.8187	-3.3792	-3.1875	-2.9125	-3.3458	-2.9292	-3.2354	-3.1833	170.401	-97.971	245.372	218.442	199.564	136.029	160.766	159.075	-58.566	47.772	156.528	150.893	241.041	167.832	31.507	185.926	0.00029016	0.00073946	2.8279e-05	1168.5	4.7225e-06	2.3049e-06	1266.5	245.57	4.2508e-06	4.406e-06	308.63	85.409	67.906	20.396	3.2969e-06	27.468	0.00017977	0.00017436	4.8466e-05	1152.6	1.9063e-06	1.9317e-06	1247.5	243.81	1.9248e-06	1.8781e-06	301.93	84.951	67.844	20.511	1.8505e-06	27.775	21.307	-68.968	-18.925	-95.894	126.941	21.522	-96.243	-88.721	-21.744	21.595	-88.853	-82.279	-82.061	-75.106	-3.791	-75.148	-8191	255	
619.875	1	1	0	0	0.097015	0.12334	0.19423	0.28035	0.24325	0.13889	0.20779	0.20739	0.24313	0.066327	0.26525	0.21979	0.11866	0.037122	0.17087	0.062349	-2.55	-3.1896	-3.1729	-3.0458	-3.2708	-2.8896	-3.1583	-3.3833	-2.7604	-3.3479	-3.1542	-2.8979	-3.3667	-2.8417	-3.0167	-3.275	72.316	-98.424	28.336	-86.601	44.501	83.787	215.975	242.300	43.129	-36.753	-105.964	-16.211	51.500	193.500	250.833	251.951	0.00035488	0.00066589	3.1923e-05	1170.7	3.8777e-06	1.1789e-06	1267	245.34	7.0367e-06	2.9002e-06	307.52	85.745	68.07	20.195	2.0825e-06	27.669	0.00017571	0.00016873	4.7755e-05	1153.2	1.9063e-06	1.8698e-06	1247.7	243.47	1.909e-06	1.8586e-06	301.65	84.993	67.834	20.412	1.8685e-06	27.828	38.662	-19.482	-23.573	-95.705	200.915	180.335	-96.145	-88.840	-72.875	19.578	-88.787	-82.461	-82.071	-75.012	19.570	-75.530	-8191	255	
619.971	1	1	0	0	0.073966	0.05888	0.26378	0.3173	0.20814	0.24821	0.38906	0.11378	0.10388	0.085041	0.15831	0.16849	0.19726	0.27825	0.073494	0.26125	-2.3333	-3.2146	-3.05	-3.0208	-3.1937	-2.975	-3.1417	-3.3958	-2.925	-3.1979	-3.1979	-3.0542	-3.3625	-3.125	-3.1146	-3.325	178.587	82.044	108.642	174.996	89.522	101.132	187.966	-100.114	83.407	-53.935	-97.669	-57.430	241.493	196.248	168.053	85.780	0.0005938	0.000504	0.00011537	1166.4	1.6012e-06	1.9281e-06	1275.9	245.44	2.5682e-06	4.153e-06	307.71	85.896	68.066	20.226	1.8137e-06	27.658	0.00017664	0.00017131	4.7176e-05	1150.3	1.8899e-06	1.8754e-06	1248.8	243.59	1.8815e-06	1.8623e-06	301.45	85.082	67.861	20.373	1.8708e-06	27.775	55.914	-44.291	187.872	-95.928	-45.608	67.296	-96.013	-88.537	192.040	3.625	-89.077	-82.762	-81.699	-74.882	68.376	-75.709	-8191	255	
620.092	1	1	0	0	0.14004	0.1802	0.033928	0.17198	0.27075	0.35913	0.23707	0.082015	0.28292	0.18148	0.11851	0.27064	0.24999	0.21435	0.17476	0.097511	-2.3229	-3.2271	-3.1917	-2.7583	-3.2917	-2.9833	-2.9021	-3.3812	-2.9854	-3.0125	-3.2917	-2.8312	-3.3125	-3.1729	-2.9229	-3.2458	78.381	235.074	32.256	107.934	-69.888	-98.848	240.334	232.065	-56.954	164.245	164.757	46.499	-100.346	-93.919	206.691	-94.639	0.00049902	0.00038355	0.00019557	1168.6	2.0985e-06	8.8742e-06	1269.8	245.41	6.7465e-06	5.874e-06	305.3	85.837	67.798	20.261	3.7026e-06	27.528	0.00017274	0.00017056	4.7455e-05	1151.9	1.8826e-06	1.848e-06	1247.7	243.66	1.8927e-06	1.8807e-06	301.11	84.848	67.727	20.368	1.8649e-06	27.747	19.656	-98.081	-14.759	-95.792	149.358	135.717	-95.967	-88.648	238.491	40.943	-89.109	-82.164	-81.586	-75.097	68.939	-75.217	-8191	255	
620.188	1	1	0	0	0.3531	0.15522	0.15641	0.12731	0.22589	0.13104	0.28509	0.1407	0.24696	0.25663	0.18528	0.20143	0.2733	0.15885	0.30436	0.11037	-2.4125	-3.0104	-3.1188	-3.0438	-3.2729	-3.0417	-3.0375	-3.3979	-3.05	-3.1458	-3.3729	-2.875	-3.0938	-3.2188	-2.7125	-3.3104	-63.735	33.508	184.754	221.875	32.716	49.384	152.655	-86.561	18.919	25.424	177.545	-97.794	-49.303	-78.989	-15.744	184.342	0.0003075	0.00030486	3.3086e-05	1168.1	2.1547e-06	2.8598e-06	1269.2	246	2.9613e-06	4.1785e-06	306.62	85.484	67.327	20.149	8.3784e-07	27.544	0.0001754	0.00017156	4.6932e-05	1152.4	1.8771e-06	1.8705e-06	1247.8	243.92	1.8962e-06	1.8631e-06	301.08	84.8	67.551	20.324	1.8992e-06	27.686	35.872	-40.241	-53.039	-95.856	-20.975	42.847	-95.742	-88.398	173.535	29.666	-88.513	-82.728	-81.846	-75.285	193.521	-75.340	-8191	255	
620.284	1	1	0	0	0.061016	0.082184	0.24195	0.1945	0.076228	0.22388	0.21001	0.16044	0.37115	0.055633	0.09761	0.026223	0.17314	0.43325	0.10899	0.14242	-2.6542	-2.775	-3.2438	-2.8542	-3.2146	-3.1479	-3	-3.4771	-3.1188	-3.0187	-3.3667	-2.8479	-3.225	-3.075	-2.825	-3.2375	-49.652	65.918	94.901	204.880	184.785	-13.556	225.124	243.668	109.948	-7.999	-39.447	241.066	-65.905	-49.121	105.010	164.032	0.00068614	0.00030013	6.2452e-05	1170.9	3.0831e-07	3.8724e-06	1264	245.15	5.0463e-06	9.6313e-07	306.03	85.604	67.506	20.003	2.8786e-06	27.442	0.0001775	0.00017389	4.8123e-05	1151.6	1.9296e-06	1.9309e-06	1245.7	243.25	1.9102e-06	1.8654e-06	300.76	84.843	67.586	20.293	1.8838e-06	27.704	38.868	-55.960	32.146	-95.899	39.030	66.158	-95.644	-88.436	-100.144	-57.744	-88.770	-82.028	-81.607	-75.202	-62.016	-75.589	-8191	255	
620.379	1	1	0	0	0.22543	0.30642	0.11364	0.21451	0.19759	0.11503	0.31795	0.13879	0.19946	0.11729	0.19401	0.12871	0.14256	0.096006	0.11652	0.15827	-2.5583	-2.8646	-3.275	-3.0854	-3.0812	-3.125	-3.0792	-3.5083	-3.0125	-2.8333	-3.4313	-3.025	-3.1771	-3.2979	-2.8146	-3.3812	-101.732	-26.442	166.597	170.784	111.184	143.717	147.647	171.626	243.057	-14.655	41.429	246.141	165.952	-102.117	-20.174	143.853	0.00043589	0.00036801	0.00011135	1173.2	2.6335e-06	4.467e-06	1265.3	246.2	1.4657e-06	5.2292e-06	307.74	85.138	67.441	20.28	4.1461e-06	27.644	0.0001768	0.00017394	4.8193e-05	1151.6	1.8742e-06	1.8452e-06	1245.5	243.42	1.8938e-06	1.8413e-06	301.26	84.772	67.479	20.374	1.8474e-06	27.736	51.697	-20.354	248.824	-95.929	75.984	73.759	-95.921	-88.731	-53.799	22.597	-88.973	-82.053	-81.852	-74.948	-0.417	-75.257	-8191	255	
620.475	1	1	0	0	0.16502	0.25854	0.16186	0.23851	0.20699	0.12467	0.16554	0.10147	0.081783	0.2094	0.38194	0.48439	0.10409	0.27599	0.13975	0.14534	-2.6396	-2.825	-3.3438	-3.1729	-3.1083	-3.2562	-2.9521	-3.3229	-3.0458	-2.8896	-3.4792	-3.1396	-3.1042	-3.3417	-2.8042	-3.2438	169.540	59.050	125.735	219.938	51.189	98.412	217.369	184.444	136.560	131.788	227.343	187.850	161.101	130.209	213.480	246.961	0.00031755	0.00040021	1.2298e-05	1169.2	2.4493e-06	4.5027e-06	1264.2	244.09	3.831e-06	8.4436e-06	306.75	85.936	67.844	20.183	7.7963e-06	27.616	0.00017409	0.00016828	4.6844e-05	1151.1	1.8581e-06	1.8543e-06	1244.4	242.99	1.878e-06	1.8674e-06	300.71	84.831	67.7	20.345	1.8355e-06	27.738	38.902	226.169	29.944	-95.940	-42.765	-18.236	-95.791	-88.742	-97.789	14.149	-88.681	-82.142	-81.908	-75.067	27.923	-75.389	-8191	255	
620.571	1	1	0	0	0.15712	0.29768	0.2138	0.45186	0.21357	0.41674	0.064464	0.051334	0.16039	0.080888	0.024244	0.12007	0.067529	0.062324	0.067053	0.12006	-2.8083	-2.9813	-3.225	-3.1833	-2.9333	-3.3083	-3.0729	-3.3083	-3.0958	-2.9021	-3.2583	-2.9813	-2.8875	-3.3521	-2.8187	-3.2812	36.779	38.254	215.023	-98.382	-12.750	134.775	93.688	79.908	235.021	-18.613	224.040	15.518	211.660	244.544	28.531	155.875	0.00032479	3.2169e-05	0.00011474	1168.4	3.7983e-06	1.1895e-06	1266.1	243.9	6.8706e-06	2.2189e-06	307.17	85.606	67.973	20.278	3.7504e-06	27.463	0.00017364	0.00016545	4.643e-05	1149	1.8669e-06	1.8108e-06	1244.5	242.61	1.8678e-06	1.838e-06	301.23	84.714	67.679	20.42	1.8737e-06	27.675	18.128	-84.022	-0.992	-96.041	-48.730	166.004	-95.837	-88.643	-91.199	66.148	-88.661	-82.165	-81.922	-75.206	32.473	-75.001	-8191	255	
620.667	1	1	0	0	0.020608	0.1205	0.10326	0.19842	0.09935	0.087402	0.21194	0.24528	0.10899	0.12856	0.18326	0.14965	0.16723	0.32518	0.34829	0.26274	-2.8604	-2.7062	-3.2625	-3.325	-3.1188	-3.1042	-3.2208	-3.2792	-3.2833	-2.8458	-3.4604	-3.0938	-2.9833	-3.4958	-2.8354	-3.1813	234.230	-34.628	-87.004	161.387	75.964	46.996	125.992	199.862	248.008	-69.742	179.981	-77.161	7.461	-80.417	226.121	8.699	0.00017642	0.00034732	0.00015483	1168.3	1.8786e-06	5.5268e-06	1264.5	245.33	3.2711e-06	4.5357e-06	308.49	85.826	67.48	20.136	2.8405e-06	27.372	0.00017118	0.00016846	4.7406e-05	1148.3	1.8566e-06	1.8686e-06	1244.2	242.97	1.8611e-06	1.8599e-06	301.73	84.933	67.557	20.332	1.8538e-06	27.683	32.277	-25.228	32.883	-95.887	219.950	59.485	-95.750	-88.767	-48.781	95.758	-88.448	-82.163	-82.027	-75.307	-17.206	-75.580	-8191	255	
620.788	1	1	0	0	0.14303	0.10512	0.2692	0.31261	0.26599	0.18015	0.20511	0.079579	0.05145	0.2306	0.079563	0.072595	0.17984	0.26718	0.25312	0.19827	-2.8604	-2.85	-3.1479	-3.3187	-2.8833	-3.3438	-3.0062	-3.1375	-3.4104	-2.7292	-3.2938	-3.15	-2.9167	-3.4583	-3.0167	-3.0438	-88.930	-26.028	126.563	231.913	-35.201	-2.005	215.344	-95.200	7.226	131.105	70.542	-102.446	-101.249	192.864	248.437	189.049	0.00046952	0.00017856	6.5768e-05	1165.5	3.8306e-06	2.623e-06	1261.1	244.04	8.157e-06	1.8373e-06	307.51	85.627	67.667	20.258	2.3806e-06	27.44	0.00017027	0.00016637	4.5893e-05	1147.9	1.8377e-06	1.819e-06	1242.8	242.65	1.811e-06	1.8152e-06	301.22	84.788	67.619	20.37	1.7884e-06	27.647	37.164	-33.160	170.138	-96.046	-68.967	98.878	-95.877	-88.355	-59.666	16.301	-88.552	-82.257	-81.991	-75.117	123.029	-75.614	-8191	255	
620.884	1	1	0	0	0.012811	0.27216	0.23268	0.29111	0.11627	0.16835	0.23977	0.13553	0.10154	0.09867	0.1304	0.14934	0.043912	0.30064	0.26371	0.17429	-2.9062	-2.9083	-3.1583	-3.3187	-2.8625	-3.3063	-3.2021	-2.9708	-3.5167	-3.0708	-3.2708	-3.1604	-2.8	-3.1979	-3	-3.1104	-32.326	180.941	-104.283	157.068	86.572	-4.803	96.403	-76.322	114.269	2.682	-22.702	99.273	67.478	16.211	-77.945	45.320	0.00059431	0.00048008	0.00013995	1158.5	3.024e-06	1.6406e-06	1262.2	243.9	1.9263e-06	4.7818e-06	306.6	85.879	67.924	20.048	1.6611e-06	27.387	0.00016842	0.00016373	4.5103e-05	1144.3	1.7958e-06	1.8018e-06	1240.2	242.15	1.8053e-06	1.8074e-06	300.51	84.689	67.481	20.303	1.7791e-06	27.639	46.477	-34.523	-49.350	-95.799	-19.425	-30.691	-95.984	-88.618	86.759	33.183	-88.867	-82.565	-81.925	-74.865	-66.311	-75.451	-8191	255	
620.980	1	1	0	0	0.065953	0.034678	0.13664	0.3174	0.080083	0.042329	0.14305	0.25971	0.10136	0.064672	0.067988	0.21174	0.33532	0.17274	0.059872	0.26262	-3.0687	-2.8458	-3.1083	-3.4354	-2.8042	-3.2521	-3.3354	-2.8833	-3.3979	-3.0104	-2.9271	-3.3167	-2.8875	-3.0938	-3.0604	-3.0646	146.546	-50.543	208.032	205.431	157.246	-71.474	145.149	180.973	227.941	-52.641	252.238	90.879	3.315	174.186	-56.904	1.380	0.00024476	0.00037014	0.00017252	1163.1	2.0634e-06	3.9238e-06	1256.2	243.69	5.2328e-06	6.7393e-06	306.2	85.412	67.694	19.984	1.455e-06	27.486	0.0001632	0.00016215	4.5107e-05	1146	1.7974e-06	1.7831e-06	1239.1	241.68	1.792e-06	1.8078e-06	300.27	84.353	67.329	20.235	1.814e-06	27.611	72.513	-46.005	-33.789	-95.801	-7.902	93.310	-95.899	-88.674	-98.822	77.483	-88.724	-82.224	-81.809	-75.051	-64.585	-75.557	-8191	255	
621.076	1	1	0	0	0.18268	0.27835	0.16781	0.22723	0.11306	0.16861	0.31211	0.08725	0.075279	0.11417	0.0097398	0.21311	0.18539	0.12721	0.13602	0.046863	-2.9958	-2.85	-3.1333	-3.4042	-2.5938	-3.3521	-3.3542	-2.9	-3.4458	-3.025	-2.9542	-3.4083	-2.8208	-3.3042	-3.1688	-2.9729	48.193	94.156	147.857	226.508	159.461	136.579	211.409	-69.982	78.042	-62.436	126.268	146.955	164.988	160.799	-106.312	-71.474	0.00047502	0.00044485	0.00012613	1164.7	1.3353e-06	1.6354e-06	1261.8	243.93	7.0943e-06	1.3154e-06	305.93	85.503	67.465	19.958	4.0774e-06	27.493	0.00016508	0.00016057	4.5084e-05	1144.3	1.761e-06	1.7554e-06	1240.5	241.9	1.7725e-06	1.7436e-06	299.74	84.447	67.354	20.219	1.7435e-06	27.538	47.100	-4.063	6.164	-95.707	2.165	-59.095	-95.976	-88.825	54.889	73.521	-88.950	-82.690	-81.940	-75.536	25.305	-75.218	-8191	255	
621.172	1	1	0	0	0.19212	0.21027	0.14197	0.31844	0.11052	0.047364	0.050244	0.16855	0.31636	0.11905	0.12767	0.1398	0.21944	0.08497	0.2375	0.23497	-2.9146	-3	-2.8521	-3.4188	-2.8375	-3.0896	-3.3646	-3.0062	-3.1625	-3.1375	-2.9646	-3.5083	-2.8042	-3.2021	-3.2375	-2.7667	26.627	201.706	41.030	240.367	-23.093	-102.122	-20.756	251.239	82.085	-85.127	-56.167	249.641	196.539	169.968	79.147	171.506	0.00024135	0.00032217	2.9792e-05	1167	4.6738e-07	2.8662e-06	1262.6	243.66	8.6843e-06	3.2362e-06	304.69	85.818	67.134	20.09	4.8769e-06	27.489	0.00016338	0.00015856	4.3902e-05	1145.5	1.7655e-06	1.7408e-06	1241	241.84	1.7625e-06	1.7211e-06	299.62	84.468	67.181	20.253	1.7474e-06	27.558	30.890	-7.456	28.200	-95.803	207.501	159.664	-95.690	-89.032	-35.185	23.033	-88.912	-82.306	-81.655	-75.441	2.693	-75.272	-8191	255	
621.269	1	1	0	0	0.10844	0.13427	0.20761	0.08095	0.2295	0.13311	0.16569	0.18787	0.1675	0.020237	0.06512	0.36085	0.25761	0.14321	0.23528	0.04065	-2.6188	-3.0917	-2.9146	-3.5521	-2.8854	-2.9458	-3.4083	-2.9375	-3.2167	-3.2375	-3.0083	-3.1958	-3.0062	-3.0542	-3.3042	-2.9542	246.142	214.443	-35.802	-88.277	238.973	113.584	130.174	201.361	-20.556	140.585	-27.749	134.945	218.785	-67.674	111.801	237.079	0.0003812	0.00054202	6.4716e-05	1163.4	1.6224e-06	4.6287e-06	1260.9	244.13	3.6397e-06	3.2934e-06	305.66	85.245	67.349	20.065	2.7736e-06	27.443	0.00016376	0.000158	4.3939e-05	1144	1.7578e-06	1.7313e-06	1238.2	241.77	1.7398e-06	1.7438e-06	299	84.355	67.145	20.216	1.702e-06	27.499	49.797	-29.562	-16.406	-95.910	30.229	155.015	-95.814	-88.771	115.011	11.196	-88.669	-82.432	-81.697	-74.785	32.022	-75.081	-8191	255	
621.389	1	1	0	0	0.10347	0.18382	0.14597	0.26873	0.13833	0.29539	0.32339	0.0095112	0.062573	0.27553	0.30799	0.19421	0.24444	0.085963	0.26047	0.087813	-2.8125	-3.0354	-2.7417	-3.4229	-2.9979	-2.8604	-3.3375	-2.9062	-3.3271	-3.1437	-2.8646	-3.4042	-2.9583	-3.0938	-3.2458	-2.9583	201.221	199.904	-103.764	216.504	147.372	130.466	209.365	-18.413	216.507	-79.728	184.784	-68.994	142.556	-26.262	202.043	93.308	0.00031105	0.00045186	0.00012747	1167.1	4.9738e-06	2.3886e-06	1260.4	242.78	4.2924e-06	5.09e-06	306.07	85.781	67.29	20.062	1.283e-06	27.432	0.00016024	0.00016101	4.3668e-05	1144.7	1.747e-06	1.7067e-06	1237.5	241.05	1.73e-06	1.7097e-06	299.26	84.366	67.165	20.164	1.7229e-06	27.527	30.919	7.909	42.765	-95.975	-34.400	72.683	-95.759	-88.647	16.502	8.861	-88.534	-82.295	-81.709	-75.308	190.135	-75.351	-8191	255	
621.484	1	1	0	0	0.13269	0.11827	0.10211	0.1451	0.16926	0.14983	0.39268	0.050003	0.22084	0.20481	0.19871	0.096206	0.26137	0.34959	0.13927	0.22102	-2.7438	-3.1271	-2.6958	-3.55	-3.0208	-2.875	-3.6792	-2.9458	-3.0875	-3.2292	-2.9125	-3.3937	-3.3271	-2.7917	-3.3083	-2.9	-45.602	152.487	-75.507	-76.526	239.826	84.960	182.499	141.964	113.080	73.379	36.199	136.227	-89.854	125.506	100.493	134.545	0.00047852	0.00041955	8.5862e-05	1161.1	2.372e-06	3.5352e-06	1262.4	242.99	3.352e-06	2.6936e-06	304.13	85.286	66.979	20.158	2.6345e-06	27.419	0.00015957	0.00015503	4.3711e-05	1140	1.7409e-06	1.7362e-06	1237.7	240.97	1.7434e-06	1.7069e-06	298.69	84.046	66.917	20.172	1.6771e-06	27.482	37.687	241.016	15.969	-96.052	224.024	-2.930	-95.965	-88.788	157.198	127.527	-88.826	-82.627	-81.793	-74.986	62.366	-75.159	-8191	255	
621.580	1	1	0	0	0.13292	0.20103	0.29047	0.27453	0.24518	0.09092	0.079443	0.34419	0.099275	0.028291	0.017758	0.15911	0.15988	0.079542	0.13356	0.053383	-2.5938	-3.325	-2.8208	-3.1479	-3.0917	-2.7542	-3.475	-2.8229	-3.1604	-3.3292	-2.9646	-3.1	-3.3646	-2.6688	-3.2646	-2.8854	176.950	-40.615	45.736	181.261	64.396	239.746	-63.622	200.289	30.354	60.515	21.049	-10.774	-105.218	212.368	-71.656	183.684	0.00065409	0.00012863	7.2553e-05	1162.7	5.6549e-06	6.7123e-06	1260.8	243.31	7.4262e-06	1.1414e-06	305.89	85.169	67.344	20.128	2.2448e-06	27.346	0.00015955	0.00015421	4.3184e-05	1141.1	1.696e-06	1.6868e-06	1237.2	241.28	1.6761e-06	1.6678e-06	298.98	84.222	67.057	20.215	1.6657e-06	27.531	45.417	-17.235	7.226	-95.865	-55.347	61.481	-95.711	-88.631	-89.127	-59.413	-88.961	-82.321	-81.886	-74.871	-27.243	-75.640	-8191	255	
621.676	1	1	0	0	0.079073	0.36853	0.3047	0.21132	0.15182	0.21421	0.28895	0.17648	0.15127	0.13378	0.056268	0.17549	0.29685	0.25659	0.24877	0.24244	-2.6958	-3.3187	-2.8021	-3.3896	-3.2292	-2.8583	-3.4604	-3.1937	-3.125	-3.1688	-2.9958	-3.1437	-3.2625	-2.8833	-3.2208	-3.0292	93.445	-10.435	179.530	205.524	194.193	194.648	164.296	243.951	211.387	251.655	129.406	-23.607	-66.493	-3.486	238.837	193.191	0.00037473	0.00043938	8.0259e-05	1157.4	1.336e-06	2.2161e-06	1256.8	242.67	4.2551e-06	4.1845e-06	304.92	84.672	66.868	20.097	1.0864e-06	27.342	0.0001559	0.00015329	4.2009e-05	1140.7	1.6595e-06	1.6776e-06	1236	241.18	1.7126e-06	1.6779e-06	299.32	84.054	67.05	20.216	1.6494e-06	27.413	60.969	-42.218	76.091	-95.875	17.868	-0.841	-96.012	-88.567	-71.832	136.409	-88.616	-82.141	-81.847	-75.080	15.211	-75.106	-8191	255	
621.772	1	1	0	0	0.19817	0.13331	0.04743	0.11638	0.21218	0.10807	0.36191	0.26062	0.13491	0.058427	0.032653	0.10522	0.13483	0.032184	0.11503	0.027946	-2.4188	-3.3333	-2.9062	-3.1646	-3.0021	-2.8521	-3.4104	-3.1979	-2.9417	-3.2542	-3.0979	-3.0333	-3.3063	-2.7208	-3.1333	-3.1479	172.125	225.554	108.199	132.316	114.614	-26.402	182.565	226.704	172.922	108.379	12.645	223.125	36.001	-57.137	244.382	113.086	0.00062726	0.00034463	0.00010372	1161.4	2.1796e-06	5.4024e-06	1254.5	243.35	3.5028e-06	6.108e-06	306.16	85.484	66.93	20.004	3.1311e-06	27.431	0.00015848	0.00015215	4.267e-05	1141.8	1.6794e-06	1.6696e-06	1234.1	240.79	1.6706e-06	1.6481e-06	299.15	83.979	66.816	20.141	1.6587e-06	27.52	65.703	-38.520	-3.326	-96.004	79.814	75.750	-95.879	-88.336	-55.897	56.083	-88.850	-82.737	-81.576	-74.956	27.482	-74.878	-8191	255	
#DATA ENDS
